lsl_time,C3,C4,CZ,CP3,CP4,CPZ,FC3,FC4
313140.78757290647,92.28520202636719,-255.42674255371094,-212.69241333007812,-338.9894104003906,160.07948303222656,265.1944274902344,124.0113296508789,-501.57989501953125
313140.7915729065,93.12552642822266,-254.25218200683594,-211.44142150878906,-337.7958679199219,161.2725372314453,266.3605041503906,124.91710662841797,-500.44830322265625
313140.79557290644,94.61483764648438,-252.34420776367188,-209.56341552734375,-335.8913879394531,163.04611206054688,268.1600646972656,126.65771484375,-498.58929443359375
313140.79957290646,94.5558853149414,-252.50857543945312,-209.78224182128906,-335.9878234863281,162.7708282470703,267.8423156738281,126.64022827148438,-498.64923095703125
313140.8035729065,93.39631652832031,-254.03135681152344,-211.34849548339844,-337.5590515136719,161.39244079589844,266.46392822265625,125.39472198486328,-500.1395568847656
313140.8075729065,92.15430450439453,-255.56463623046875,-212.86927795410156,-339.2147521972656,159.92860412597656,265.0600280761719,124.00983428955078,-501.6673278808594
313140.81157290644,93.07357025146484,-254.5244598388672,-211.71669006347656,-338.1515808105469,160.9602813720703,265.96881103515625,124.955078125,-500.6516418457031
313140.81557290646,94.57237243652344,-252.75987243652344,-209.91363525390625,-336.2296142578125,162.6504364013672,267.7279052734375,126.59176635742188,-498.9225158691406
313140.8195729065,94.42998504638672,-252.73190307617188,-210.09498596191406,-336.3355407714844,162.7403564453125,267.7713623046875,126.52481842041016,-499.0379333496094
313140.8235729065,93.02361297607422,-254.32261657714844,-211.75466918945312,-338.0242004394531,161.06919860839844,266.14666748046875,125.0295181274414,-500.6001892089844
313140.82757290645,92.0074234008789,-255.7489776611328,-213.07411193847656,-339.25921630859375,159.6453399658203,264.8926696777344,123.69657897949219,-501.8741760253906
313140.83157290646,93.21595764160156,-254.468505859375,-211.60028076171875,-337.7793884277344,160.89833068847656,266.16864013671875,124.90161895751953,-500.5062561035156
313140.8355729065,94.72724914550781,-252.50657653808594,-209.65484619140625,-335.86590576171875,162.72537231445312,267.90875244140625,126.70068359375,-498.5722961425781
313140.8395729065,94.98554229736328,-251.9989776611328,-209.41354370117188,-335.5716552734375,163.17601013183594,268.4183654785156,127.03691101074219,-498.19110107421875
313140.8435729065,93.5666732788086,-253.6531524658203,-211.08070373535156,-337.28826904296875,161.6392364501953,266.8910827636719,125.60855102539062,-499.79083251953125
313140.84757290647,91.95646667480469,-255.4542236328125,-212.8602752685547,-339.1482849121094,159.72776794433594,265.0020751953125,123.89642333984375,-501.5604248046875
313140.8515729065,92.80428314208984,-254.4595184326172,-211.75416564941406,-338.0651550292969,160.51963806152344,265.8209228515625,124.75923156738281,-500.5282287597656
313140.8555729065,94.19467163085938,-252.69741821289062,-209.98507690429688,-336.17315673828125,162.2907257080078,267.52655029296875,126.24404907226562,-498.732666015625
313140.8595729065,94.24463653564453,-252.7368927001953,-209.98158264160156,-336.0252990722656,162.31320190429688,267.46160888671875,126.39791870117188,-498.5872802734375
313140.86357290647,93.24493408203125,-254.08731079101562,-211.35948181152344,-337.42767333984375,160.8653564453125,265.9873046875,125.24484252929688,-499.9272155761719
313140.8675729065,92.229248046875,-255.37478637695312,-212.6394500732422,-338.6771545410156,159.68679809570312,265.0140686035156,123.93189239501953,-501.25164794921875
313140.8715729065,93.0311050415039,-254.2776641845703,-211.5703125,-337.68994140625,160.6785125732422,265.9703063964844,124.76522827148438,-500.29541015625
313140.8755729065,94.67129516601562,-252.3062286376953,-209.7093048095703,-335.82293701171875,162.7168731689453,267.8942565917969,126.5068359375,-498.5992736816406
313140.8795729065,94.6258316040039,-252.5560302734375,-209.86917114257812,-335.9708251953125,162.6734161376953,267.9397277832031,126.60325622558594,-498.8166198730469
313140.8835729065,93.22045135498047,-254.28515625,-211.5843048095703,-337.5660705566406,160.9622802734375,266.3544921875,125.1179428100586,-500.4118347167969
313140.8875729065,92.25971984863281,-255.6590576171875,-212.86277770996094,-338.8570251464844,159.61386108398438,265.09600830078125,123.87793731689453,-501.7287902832031
313140.8915729065,93.17098999023438,-254.44203186035156,-211.6297607421875,-337.6984558105469,160.67601013183594,266.10919189453125,124.77571868896484,-500.629150390625
313140.8955729065,95.06697845458984,-252.51107788085938,-209.51844787597656,-335.4962158203125,162.6724090576172,267.9177551269531,126.81259155273438,-498.60577392578125
313140.8995729065,94.83116912841797,-252.50308227539062,-209.66433715820312,-335.6426086425781,162.7113800048828,267.8617858886719,126.68718719482422,-498.65472412109375
313140.9035729065,93.59365844726562,-253.79754638671875,-211.09169006347656,-337.08642578125,161.26504516601562,266.4454345703125,125.45367431640625,-499.8812561035156
313140.9075729065,92.45406341552734,-255.29434204101562,-212.52255249023438,-338.5207824707031,159.80270385742188,265.0090637207031,124.0767822265625,-501.3350830078125
313140.9115729065,93.42279052734375,-254.03036499023438,-211.21409606933594,-337.2353210449219,161.12765502929688,266.31103515625,125.02801513671875,-500.17852783203125
313140.9155729065,94.75822448730469,-252.47760009765625,-209.576904296875,-335.5321960449219,162.57049560546875,267.77685546875,126.53031921386719,-498.4793701171875
313140.9195729065,94.90660858154297,-252.43612670898438,-209.52694702148438,-335.4247741699219,162.5270233154297,267.72039794921875,126.81558990478516,-498.2525634765625
313140.92357290647,93.6041488647461,-253.9529266357422,-211.0657196044922,-336.98651123046875,161.16062927246094,266.3440246582031,125.48365020751953,-499.7078857421875
313140.9275729065,92.38761901855469,-255.21340942382812,-212.50706481933594,-338.5547790527344,159.68780517578125,264.8901672363281,124.05030059814453,-501.1397399902344
313140.9315729065,93.41829681396484,-254.13478088378906,-211.29302978515625,-337.39068603515625,160.7069854736328,265.9713134765625,125.06449127197266,-500.1070861816406
313140.9355729065,95.19037628173828,-252.04544067382812,-209.2301788330078,-335.38629150390625,162.90272521972656,268.0836181640625,127.04390716552734,-498.12615966796875
313140.93957290647,94.84715270996094,-252.34671020507812,-209.56442260742188,-335.6920471191406,162.69589233398438,267.8897705078125,126.83407592773438,-498.38995361328125
313140.9435729065,93.70806121826172,-253.76657104492188,-210.9757843017578,-337.0839538574219,161.33547973632812,266.5893249511719,125.64352416992188,-499.7138977050781
313140.94757290644,92.60394287109375,-255.23239135742188,-212.32220458984375,-338.42535400390625,159.94509887695312,265.2613830566406,124.3021011352539,-501.0887756347656
313140.95157290646,93.71056365966797,-254.015869140625,-211.106689453125,-337.1379089355469,160.92181396484375,266.3160400390625,125.23135375976562,-500.00665283203125
313140.9555729065,95.20286560058594,-252.34671020507812,-209.468994140625,-335.480224609375,162.66741943359375,268.1036071777344,126.87254333496094,-498.5043640136719
313140.9595729065,95.30528259277344,-252.75537109375,-209.8621826171875,-335.92987060546875,162.84378051757812,268.37188720703125,127.14382934570312,-499.2002868652344
313140.96357290645,93.85894012451172,-254.59890747070312,-211.75616455078125,-337.8837890625,161.19808959960938,266.763671875,125.67649841308594,-501.1237487792969
313140.96757290646,92.77880859375,-256.042236328125,-213.11807250976562,-339.19525146484375,159.70977783203125,265.2998352050781,124.30859375,-502.4297180175781
313140.9715729065,93.81797790527344,-254.55343627929688,-211.68272399902344,-337.7469177246094,160.89083862304688,266.37847900390625,125.23485565185547,-501.00634765625
313140.9755729065,95.04898834228516,-252.74588012695312,-209.90164184570312,-335.8509216308594,162.42611694335938,267.7783508300781,126.64372253417969,-499.1113586425781
313140.97957290645,95.07247161865234,-252.55453491210938,-209.82171630859375,-335.5381774902344,162.626953125,268.13507080078125,126.6891860961914,-498.8775634765625
313140.98357290647,93.66210174560547,-254.16375732421875,-211.49386596679688,-337.12640380859375,161.0232391357422,266.634765625,125.19888305664062,-500.3528747558594
313140.9875729065,92.60444641113281,-255.6785430908203,-212.9527130126953,-338.63470458984375,159.64633178710938,265.26837158203125,123.92340087890625,-501.88165283203125
313140.9915729065,93.80049133300781,-254.44952392578125,-211.61627197265625,-337.2887878417969,160.92330932617188,266.623779296875,124.9930419921875,-500.7975158691406
313140.99557290645,95.15640258789062,-252.701416015625,-209.86817932128906,-335.52569580078125,162.60147094726562,268.2869567871094,126.5542984008789,-499.06689453125
313140.99957290647,94.9995346069336,-252.92674255371094,-210.10198974609375,-335.78497314453125,162.3177032470703,267.9392395019531,126.59676361083984,-499.10888671875
313141.0035729065,93.35784149169922,-254.9875946044922,-212.12086486816406,-337.84332275390625,160.2918243408203,265.9598083496094,124.95457458496094,-501.016357421875
313141.0075729065,92.29769134521484,-256.3759765625,-213.6091766357422,-339.5444641113281,159.4105224609375,265.2708740234375,123.75553894042969,-502.84588623046875
313141.01157290646,93.25492858886719,-255.4941864013672,-212.56800842285156,-338.6796569824219,160.6460418701172,266.4819030761719,124.7882080078125,-502.2253723144531
313141.0155729065,94.82017517089844,-253.71360778808594,-210.7100067138672,-336.8825988769531,162.47157287597656,268.12457275390625,126.5562973022461,-500.4712829589844
313141.0195729065,94.86863708496094,-253.36138916015625,-210.5861053466797,-336.6962585449219,162.60496520996094,268.25299072265625,126.66271209716797,-500.1555480957031
313141.02357290644,93.9039077758789,-254.5254669189453,-211.84059143066406,-337.8883056640625,161.322998046875,266.98699951171875,125.55559539794922,-501.2476501464844
313141.02757290646,93.03810119628906,-255.76846313476562,-213.0091552734375,-338.9874267578125,160.07948303222656,265.7874450683594,124.35255432128906,-502.384765625
313141.0315729065,93.85944366455078,-254.67184448242188,-211.82960510253906,-337.8877868652344,161.13763427734375,266.86260986328125,125.16890716552734,-501.3820495605469
313141.03557290643,95.44467163085938,-252.89076232910156,-209.9700927734375,-336.1446838378906,162.8837432861328,268.4812927246094,126.98695373535156,-499.6014709472656
313141.03957290645,95.21286010742188,-252.8597869873047,-210.02655029296875,-336.1122131347656,162.58299255371094,268.0231628417969,126.90201568603516,-499.28125
313141.0435729064,93.8574447631836,-254.22470092773438,-211.45440673828125,-337.4431457519531,160.91482543945312,266.2410888671875,125.53561401367188,-500.284423828125
313141.0475729064,92.36863708496094,-255.78346252441406,-213.0121612548828,-338.9139709472656,159.21617126464844,264.6478576660156,123.82398223876953,-501.7157897949219
313141.05157290644,93.4083023071289,-254.3875732421875,-211.65174865722656,-337.5965270996094,160.48565673828125,265.8813781738281,124.78071594238281,-500.4762878417969
313141.05557290645,94.92059326171875,-252.56253051757812,-209.76675415039062,-335.7330322265625,162.4276123046875,267.71942138671875,126.48035430908203,-498.6552429199219
313141.0595729064,94.96855926513672,-252.42764282226562,-209.79823303222656,-335.70703125,162.50404357910156,267.852294921875,126.60775756835938,-498.5693054199219
313141.0635729064,93.69557189941406,-253.73159790039062,-211.2305908203125,-337.1139221191406,161.11715698242188,266.4389343261719,125.32128143310547,-499.83929443359375
313141.06757290644,92.44857025146484,-255.28884887695312,-212.68641662597656,-338.4928283691406,159.58238220214844,264.98809814453125,123.85095977783203,-501.30511474609375
313141.07157290645,93.3673324584961,-254.27166748046875,-211.59129333496094,-337.3407287597656,160.71397399902344,266.2301025390625,124.62583923339844,-500.3933410644531
313141.0755729064,94.70626831054688,-252.3007354736328,-209.71829223632812,-335.4652404785156,162.5000457763672,267.77386474609375,126.2115707397461,-498.3894348144531
313141.0795729064,94.5039291381836,-252.4071502685547,-209.87716674804688,-335.5646667480469,162.25823974609375,267.4576110839844,126.19608306884766,-498.3265075683594
313141.08357290644,93.41929626464844,-253.90646362304688,-211.3314971923828,-336.9010925292969,160.73046875,266.0102844238281,124.912109375,-499.6439514160156
313141.08757290646,92.11933135986328,-255.25437927246094,-212.72088623046875,-338.2590026855469,159.254150390625,264.6503601074219,123.41030883789062,-500.9998474121094
313141.0915729065,93.0256118774414,-254.2561798095703,-211.59478759765625,-337.193359375,160.15992736816406,265.5261535644531,124.362548828125,-500.003662109375
313141.09557290643,94.73124694824219,-252.4176483154297,-209.62586975097656,-335.2284240722656,161.88255310058594,267.1298828125,126.25203704833984,-498.1036682128906
313141.09957290645,94.79519653320312,-252.3976593017578,-209.6683349609375,-335.25341796875,162.03892517089844,267.3277282714844,126.42440032958984,-498.1111755371094
313141.10357290646,93.56417846679688,-253.70811462402344,-211.10269165039062,-336.7132263183594,160.9727783203125,266.4179382324219,125.1124496459961,-499.5260314941406
313141.1075729065,92.50202941894531,-254.86419677734375,-212.24876403808594,-337.87030029296875,159.72877502441406,265.15545654296875,123.81698608398438,-500.5951843261719
313141.11157290643,93.26441955566406,-253.9099578857422,-211.20260620117188,-336.89959716796875,160.4986572265625,265.8493957519531,124.54490661621094,-499.5790100097656
313141.11557290645,94.34754943847656,-252.23379516601562,-209.64584350585938,-335.3923034667969,161.76463317871094,266.968017578125,125.9033203125,-497.83489990234375
313141.11957290646,94.1087417602539,-252.37017822265625,-209.91513061523438,-335.6865539550781,161.4558868408203,266.4404296875,125.7914047241211,-497.891357421875
313141.1235729065,92.8767318725586,-253.88746643066406,-211.42442321777344,-337.1763610839844,160.1844024658203,265.2593688964844,124.50443267822266,-499.34417724609375
313141.12757290644,91.88402557373047,-255.38526916503906,-212.88575744628906,-338.67767333984375,159.0583038330078,264.3001403808594,123.2859115600586,-501.0752868652344
313141.13157290645,93.0860595703125,-254.35009765625,-211.78964233398438,-337.6579895019531,160.20738220214844,265.47271728515625,124.41600799560547,-500.3503723144531
313141.13557290647,94.7122573852539,-252.69992065429688,-210.10398864746094,-336.0367736816406,161.9964599609375,267.18084716796875,126.259033203125,-498.81561279296875
313141.1395729065,94.94457244873047,-252.73838806152344,-210.12796020507812,-336.0732421875,162.38314819335938,267.71240234375,126.5877685546875,-498.9659729003906
313141.14357290644,93.89741516113281,-254.30963134765625,-211.64874267578125,-337.5046081542969,161.1451416015625,266.7516784667969,125.37623596191406,-500.59619140625
313141.14757290646,92.62242889404297,-255.9228515625,-213.15354919433594,-339.01141357421875,159.67431640625,265.50567626953125,123.91240692138672,-502.19891357421875
313141.15157290647,93.5386962890625,-254.80224609375,-211.94601440429688,-337.83184814453125,160.6170654296875,266.375,124.8096923828125,-501.0982971191406
313141.1555729065,95.0534896850586,-252.74139404296875,-209.9591064453125,-335.8359375,162.4945526123047,268.132080078125,126.52182006835938,-499.03192138671875
313141.15957290644,94.86913299560547,-252.7573699951172,-210.05801391601562,-335.932861328125,162.37464904785156,267.8503112792969,126.5078353881836,-498.90155029296875
313141.16357290646,93.20696258544922,-254.4395294189453,-211.8420867919922,-337.689453125,160.63055419921875,266.13916015625,124.86914825439453,-500.4278259277344
313141.1675729065,92.10834503173828,-255.65255737304688,-213.08010864257812,-338.9384460449219,159.3330841064453,264.7862548828125,123.55569458007812,-501.5779113769531
313141.1715729065,93.2908935546875,-254.3960723876953,-211.74517822265625,-337.6694641113281,160.51214599609375,265.97930908203125,124.66980743408203,-500.4388122558594
313141.17557290645,94.92708587646484,-252.7283935546875,-210.02105712890625,-335.9348449707031,162.21678161621094,267.62799072265625,126.38442993164062,-498.840576171875
313141.17957290646,94.8361587524414,-252.8378143310547,-210.16493225097656,-336.0392761230469,162.28172302246094,267.70892333984375,126.42040252685547,-498.85406494140625
313141.1835729065,93.82496643066406,-253.91244506835938,-211.343994140625,-337.08544921875,161.02772521972656,266.5413513183594,125.29879760742188,-499.8677673339844
313141.1875729065,92.53350067138672,-255.24539184570312,-212.69541931152344,-338.4743347167969,159.47247314453125,264.96612548828125,123.80549621582031,-501.2062072753906
313141.1915729065,93.42878723144531,-254.32261657714844,-211.60528564453125,-337.43914794921875,160.57858276367188,266.1127014160156,124.6598129272461,-500.38037109375
313141.19557290646,95.138916015625,-252.4511260986328,-209.70030212402344,-335.6146240234375,162.64393615722656,268.06463623046875,126.59027099609375,-498.6207580566406
313141.1995729065,94.89611053466797,-252.76187133789062,-210.0205535888672,-336.0148010253906,162.33319091796875,267.657470703125,126.52232360839844,-498.8790588378906
313141.2035729065,93.608642578125,-254.31263732910156,-211.5758056640625,-337.5850524902344,160.90682983398438,266.3554992675781,125.17140197753906,-500.47576904296875
313141.2075729065,92.55198669433594,-255.599609375,-212.83929443359375,-338.9599304199219,159.69129943847656,265.1614685058594,123.94788360595703,-501.8192138671875
313141.21157290647,93.69207763671875,-254.41705322265625,-211.56732177734375,-337.7359313964844,160.79092407226562,266.3225402832031,125.01602935791016,-500.68560791015625
313141.2155729065,95.22434997558594,-252.58950805664062,-209.7622528076172,-335.9048767089844,162.67691040039062,268.22100830078125,126.73365020751953,-498.98046875
313141.2195729065,94.98954010009766,-252.85279846191406,-210.08050537109375,-336.2116394042969,162.40562438964844,267.9152526855469,126.65921020507812,-499.1883239746094
313141.2235729065,93.88691711425781,-254.21971130371094,-211.46189880371094,-337.56854248046875,161.03521728515625,266.5678405761719,125.461669921875,-500.412841796875
313141.2275729065,92.67339324951172,-255.61509704589844,-212.77285766601562,-338.86102294921875,159.6508331298828,265.21392822265625,124.09925842285156,-501.67730712890625
313141.2315729065,93.58666229248047,-254.46200561523438,-211.62176513671875,-337.76788330078125,160.58108520507812,266.00128173828125,124.92659759521484,-500.6161804199219
313141.2355729065,95.21186065673828,-252.72390747070312,-209.8332061767578,-335.9813232421875,162.30670166015625,267.64398193359375,126.60076141357422,-498.98046875
313141.2395729065,95.35674285888672,-252.64247131347656,-209.8172149658203,-335.9448547363281,162.6219482421875,267.9607238769531,126.84306335449219,-498.948486328125
313141.2435729065,94.15120697021484,-253.9599151611328,-211.27554321289062,-337.4511413574219,161.2205810546875,266.47491455078125,125.61654663085938,-500.28692626953125
313141.2475729065,92.67239379882812,-255.71900939941406,-212.9582061767578,-339.079833984375,159.4624786376953,264.8547058105469,123.95587158203125,-501.9261169433594
313141.2515729065,93.52471160888672,-254.87718200683594,-211.91802978515625,-337.8813171386719,160.7124786376953,266.47491455078125,124.69927978515625,-501.1407470703125
313141.2555729065,95.27530670166016,-252.6184844970703,-209.79623413085938,-335.74951171875,162.80081176757812,268.5837097167969,126.65022277832031,-499.0674133300781
313141.2595729065,95.26032257080078,-252.57601928710938,-209.86917114257812,-335.7909851074219,162.69039916992188,268.4058532714844,126.77312469482422,-498.97698974609375
313141.2635729065,94.02530670166016,-254.30213928222656,-211.5703125,-337.4296569824219,160.9652862548828,266.70123291015625,125.44268798828125,-500.5382385253906
313141.2675729065,92.57996368408203,-255.8888702392578,-213.20201110839844,-339.08984375,159.1717071533203,264.9111633300781,123.83296966552734,-502.01953125
313141.2715729065,93.59165954589844,-254.5654296875,-211.861083984375,-337.7234191894531,160.4791717529297,266.25408935546875,124.81868743896484,-500.77655029296875
313141.2755729065,95.23234558105469,-252.66294860839844,-209.92013549804688,-335.7749938964844,162.2532501220703,267.90625,126.5767822265625,-498.8775634765625
313141.2795729065,94.97954559326172,-252.85130310058594,-210.21389770507812,-336.0133056640625,161.94149780273438,267.51007080078125,126.36944580078125,-499.0064697265625
313141.28357290645,93.44427490234375,-254.40455627441406,-211.84658813476562,-337.60302734375,160.31130981445312,265.8384094238281,124.79071044921875,-500.4462890625
313141.28757290647,92.207763671875,-255.6935272216797,-213.13006591796875,-338.96142578125,159.01783752441406,264.5654296875,123.4207992553711,-501.6518249511719
313141.2915729065,93.43228149414062,-254.349609375,-211.7082061767578,-337.646484375,160.41221618652344,266.0242614746094,124.66680908203125,-500.4253234863281
313141.2955729065,94.91859436035156,-252.76536560058594,-210.05003356933594,-336.0532531738281,161.98297119140625,267.5215759277344,126.3604507446289,-498.85107421875
313141.29957290646,94.6657943725586,-253.07362365722656,-210.438720703125,-336.449951171875,161.6487274169922,267.032958984375,126.23805236816406,-499.1038818359375
313141.3035729065,93.3123779296875,-254.63987731933594,-212.0534210205078,-338.12060546875,160.16891479492188,265.5301513671875,124.8806381225586,-500.5966796875
313141.3075729065,92.18578338623047,-255.933837890625,-213.37086486816406,-339.43206787109375,158.9364013671875,264.554931640625,123.56568908691406,-501.9021301269531
313141.3115729065,93.14651489257812,-254.6788330078125,-212.12237548828125,-338.0951232910156,160.073486328125,265.71551513671875,124.43598937988281,-500.7375793457031
313141.31557290646,94.87712860107422,-252.7473907470703,-210.13995361328125,-336.083251953125,161.86456298828125,267.3796691894531,126.23954772949219,-498.76715087890625
313141.3195729065,94.64081573486328,-252.9846954345703,-210.37327575683594,-336.3485412597656,161.4903564453125,266.8186340332031,126.11564636230469,-498.8021240234375
313141.3235729065,93.41779327392578,-254.50697326660156,-211.84359741210938,-337.81085205078125,160.0050506591797,265.2993469238281,124.85964965820312,-500.11956787109375
313141.3275729065,92.14431762695312,-255.85690307617188,-213.26895141601562,-339.2716979980469,158.60865783691406,263.9993896484375,123.46826171875,-501.5374450683594
313141.33157290646,93.1225357055664,-254.6533660888672,-212.06491088867188,-338.0681457519531,159.77822875976562,265.2858581542969,124.37703704833984,-500.51324462890625
313141.3355729065,94.72325134277344,-252.67593383789062,-210.0435333251953,-336.0802307128906,161.94000244140625,267.4051513671875,126.17310333251953,-498.5693054199219
313141.3395729065,94.6368179321289,-252.67044067382812,-210.12896728515625,-336.1806640625,161.9609832763672,267.3187255859375,126.22156524658203,-498.5962829589844
313141.34357290645,93.52820587158203,-254.04934692382812,-211.61376953125,-337.6025390625,160.56210327148438,266.0452575683594,125.01752471923828,-500.00115966796875
313141.34757290647,92.20476531982422,-255.7849578857422,-213.24298095703125,-339.2911682128906,158.87794494628906,264.3156433105469,123.49024963378906,-501.63037109375
313141.3515729065,93.05108642578125,-254.813232421875,-212.141357421875,-338.1815490722656,159.77073669433594,265.2763671875,124.28761291503906,-500.68511962890625
313141.3555729065,94.8036880493164,-252.67593383789062,-209.98257446289062,-335.9778137207031,161.99595642089844,267.56402587890625,126.23805236816406,-498.634765625
313141.35957290645,94.73724365234375,-252.76885986328125,-210.1349639892578,-336.09173583984375,162.00445556640625,267.6219787597656,126.27851867675781,-498.7196960449219
313141.36357290647,93.66459655761719,-254.22219848632812,-211.58779907226562,-337.5335693359375,160.56060791015625,266.13067626953125,125.08447265625,-500.06610107421875
313141.3675729065,92.79179382324219,-255.44522094726562,-212.76734924316406,-338.7311096191406,159.3855438232422,265.0000915527344,123.9898452758789,-501.2851257324219
313141.3715729065,93.49073791503906,-254.5094757080078,-211.7781524658203,-337.8138427734375,160.1988983154297,265.79644775390625,124.71976470947266,-500.4228210449219
313141.37557290646,94.76522064208984,-252.85479736328125,-210.10447692871094,-336.147705078125,161.70819091796875,267.1453552246094,126.18359375,-498.74066162109375
313141.3795729065,94.49642944335938,-253.04214477539062,-210.4087371826172,-336.3620300292969,161.48187255859375,266.8486022949219,126.0272216796875,-498.8880615234375
313141.3835729065,93.26791381835938,-254.4650115966797,-211.90054321289062,-337.80035400390625,160.10296630859375,265.5076904296875,124.7407455444336,-500.2030029296875
313141.3875729065,92.21825408935547,-255.73500061035156,-213.10658264160156,-339.0668640136719,158.7995147705078,264.26568603515625,123.565185546875,-501.3221130371094
313141.3915729065,93.19147491455078,-254.5064697265625,-211.84359741210938,-337.8223571777344,159.7792205810547,265.18695068359375,124.51692962646484,-500.1230773925781
313141.3955729065,94.68478393554688,-252.5750274658203,-209.8751678466797,-335.8369445800781,161.66221618652344,266.9944763183594,126.20307922363281,-498.16162109375
313141.3995729065,94.74873352050781,-252.59251403808594,-209.85269165039062,-335.8669128417969,161.57728576660156,266.7242126464844,126.45437622070312,-497.9897766113281
313141.4035729065,93.54469299316406,-254.04135131835938,-211.408935546875,-337.4266662597656,160.07199096679688,265.2673645019531,125.0889663696289,-499.4166259765625
313141.4075729065,92.4675521850586,-255.16444396972656,-212.61947631835938,-338.5877380371094,158.83848571777344,264.2326965332031,123.71656799316406,-500.5467224121094
313141.4115729065,93.24193572998047,-254.2257080078125,-211.5453338623047,-337.4616394042969,159.5429229736328,264.8926696777344,124.43949127197266,-499.51654052734375
313141.4155729065,95.15790557861328,-251.91004943847656,-209.2156982421875,-335.09503173828125,161.96847534179688,267.25927734375,126.50883483886719,-497.2653503417969
313141.4195729065,95.25432586669922,-251.84959411621094,-209.2191925048828,-335.0380859375,162.15333557128906,267.5140686035156,126.67769622802734,-497.255859375
313141.4235729065,93.72405242919922,-253.63067626953125,-211.10568237304688,-336.9450378417969,160.45819091796875,265.92034912109375,125.1069564819336,-499.03643798828125
313141.4275729065,92.53050231933594,-255.2069091796875,-212.7069091796875,-338.604736328125,158.9763641357422,264.4914855957031,123.70657348632812,-500.6091613769531
313141.4315729065,93.56717681884766,-254.00137329101562,-211.4324188232422,-337.38970947265625,160.1864013671875,265.6595458984375,124.72925567626953,-499.51953125
313141.4355729065,94.74573516845703,-252.48509216308594,-209.87466430664062,-335.8584289550781,161.6177520751953,266.978515625,126.1306381225586,-498.03521728515625
313141.4395729065,94.4544677734375,-252.48658752441406,-210.0400390625,-336.02777099609375,161.39193725585938,266.5683288574219,125.96876525878906,-497.9942626953125
313141.4435729065,93.71356201171875,-253.4103546142578,-211.02474975585938,-336.98101806640625,160.4666748046875,265.6051025390625,125.03800964355469,-498.86956787109375
313141.4475729065,92.57047271728516,-255.029052734375,-212.56800842285156,-338.5607604980469,159.0797882080078,264.40155029296875,123.6306381225586,-500.5377197265625
313141.4515729065,93.28190612792969,-254.25967407226562,-211.72268676757812,-337.7808837890625,160.0999755859375,265.5711364746094,124.30709075927734,-499.9676818847656
313141.45557290653,94.68028259277344,-252.4890899658203,-209.94711303710938,-336.0497741699219,161.85256958007812,267.1633605957031,125.93878936767578,-498.2470703125
313141.4595729065,94.61283874511719,-252.47109985351562,-210.0780029296875,-336.1741638183594,161.7001953125,266.88458251953125,126.00823211669922,-498.2310791015625
313141.4635729065,93.3813247680664,-254.01187133789062,-211.64175415039062,-337.6729736328125,160.2798309326172,265.5771179199219,124.64432525634766,-499.7398681640625
313141.4675729065,92.50052642822266,-255.3328094482422,-212.8452911376953,-338.8245544433594,159.10975646972656,264.6338806152344,123.47026062011719,-501.03582763671875
313141.47157290654,93.54969024658203,-254.31512451171875,-211.65174865722656,-337.6235046386719,160.1359405517578,265.6955261230469,124.43598937988281,-500.0361328125
313141.4755729065,94.80718231201172,-252.68344116210938,-209.9895782470703,-335.9013977050781,161.63723754882812,267.0594482421875,125.84686279296875,-498.4034423828125
313141.4795729065,94.87962341308594,-252.3726806640625,-209.88015747070312,-335.7060546875,161.64523315429688,266.9884948730469,125.98475646972656,-498.107666015625
313141.4835729065,93.79798889160156,-253.80503845214844,-211.25706481933594,-337.052978515625,160.24835205078125,265.5796203613281,124.8636474609375,-499.3631591796875
313141.48757290654,92.81977081298828,-255.03456115722656,-212.47708129882812,-338.2994689941406,159.08328247070312,264.4825134277344,123.70157623291016,-500.5816955566406
313141.49157290655,93.77400970458984,-253.8789825439453,-211.26954650878906,-337.08843994140625,160.13194274902344,265.52215576171875,124.5823745727539,-499.4011535644531
313141.4955729065,95.14141845703125,-252.14036560058594,-209.55941772460938,-335.458740234375,161.90252685546875,267.162841796875,126.20757293701172,-497.74847412109375
313141.4995729065,95.04100036621094,-252.1588592529297,-209.6663360595703,-335.64459228515625,161.88853454589844,267.09539794921875,126.36844635009766,-497.7239685058594
313141.50357290654,93.85295104980469,-253.78555297851562,-211.2955322265625,-337.3027648925781,160.24935913085938,265.4482116699219,125.0619888305664,-499.2652587890625
313141.50757290656,92.53800201416016,-255.5191650390625,-212.97068786621094,-339.13079833984375,158.70208740234375,263.9953918457031,123.56968688964844,-501.07830810546875
313141.5115729065,93.36283874511719,-254.54544067382812,-211.95249938964844,-338.2125244140625,159.7087860107422,265.0120849609375,124.42849731445312,-500.240966796875
313141.51557290653,94.85814666748047,-252.58900451660156,-210.01954650878906,-336.2840881347656,161.60076904296875,266.796142578125,126.15811157226562,-498.3085021972656
313141.51957290655,94.73674011230469,-252.52105712890625,-210.0110626220703,-336.1796569824219,161.48387145996094,266.62579345703125,126.16610717773438,-498.0751953125
313141.52357290656,93.51571655273438,-254.05982971191406,-211.5543212890625,-337.6095275878906,159.87765502929688,265.0765380859375,124.86215209960938,-499.48358154296875
313141.5275729066,92.49253845214844,-255.5491485595703,-212.94920349121094,-338.9784240722656,158.59767150878906,264.08282470703125,123.58067321777344,-500.9863586425781
313141.53157290653,93.50922393798828,-254.47549438476562,-211.75816345214844,-337.8118591308594,159.9246063232422,265.5091857910156,124.48944854736328,-500.133544921875
313141.53557290655,95.17488861083984,-252.4051513671875,-209.76075744628906,-335.8069763183594,161.9879608154297,267.4955749511719,126.29600524902344,-498.26654052734375
313141.53957290656,95.31777954101562,-252.22430419921875,-209.70530700683594,-335.7010498046875,162.07688903808594,267.5185852050781,126.47535705566406,-498.07818603515625
313141.5435729065,94.01531982421875,-253.61569213867188,-211.2450714111328,-337.1598815917969,160.55560302734375,265.9488220214844,125.03800964355469,-499.3856506347656
313141.54757290654,92.59795379638672,-255.33531188964844,-212.9407196044922,-338.8899841308594,158.81649780273438,264.2062072753906,123.3558578491211,-501.07281494140625
313141.55157290655,93.30488586425781,-254.53445434570312,-212.0359344482422,-337.9577331542969,159.59786987304688,264.97760009765625,123.92040252685547,-500.3773498535156
313141.55557290657,94.98954010009766,-252.377685546875,-209.89515686035156,-335.7485046386719,161.82708740234375,267.2642822265625,125.71846771240234,-498.31201171875
313141.5595729065,95.0569839477539,-252.3152313232422,-209.87567138671875,-335.6241149902344,161.74465942382812,267.0534362792969,125.8548583984375,-498.0951843261719
313141.56357290654,93.87342834472656,-254.0353546142578,-211.548828125,-337.2373046875,159.9945526123047,265.31732177734375,124.45597839355469,-499.6484375
313141.56757290656,92.45506286621094,-255.66156005859375,-213.20001220703125,-338.9084777832031,158.26144409179688,263.69012451171875,122.83627319335938,-501.1872253417969
313141.57157290657,93.41779327392578,-254.37208557128906,-211.89405822753906,-337.6624755859375,159.53941345214844,265.136962890625,123.86544799804688,-500.00616455078125
313141.5755729065,94.73174285888672,-252.62448120117188,-210.18092346191406,-336.1122131347656,161.30799865722656,266.7566833496094,125.54710388183594,-498.35198974609375
313141.57957290654,94.40251159667969,-252.9577178955078,-210.56761169433594,-336.600341796875,160.9857635498047,266.2750549316406,125.46866607666016,-498.5992736816406
313141.58357290656,93.26541900634766,-254.25868225097656,-211.94300842285156,-337.94775390625,159.60037231445312,264.9466247558594,124.2881088256836,-499.7164001464844
313141.5875729066,92.19427490234375,-255.50767517089844,-213.20350646972656,-339.1592712402344,158.36485290527344,263.9659118652344,123.04410552978516,-500.9743957519531
313141.5915729066,93.0870590209961,-254.32012939453125,-212.0089569091797,-337.9956970214844,159.47946166992188,264.9950866699219,123.94488525390625,-499.92620849609375
313141.59557290655,94.43898010253906,-252.59451293945312,-210.2363739013672,-336.26959228515625,161.23806762695312,266.6087951660156,125.51712799072266,-498.21209716796875
313141.59957290656,94.40400695800781,-252.94671630859375,-210.5166473388672,-336.6028137207031,161.23056030273438,266.5693359375,125.61804962158203,-498.58380126953125
313141.6035729066,93.3598403930664,-254.2047119140625,-211.93551635742188,-338.1111145019531,160.1429443359375,265.5551452636719,124.4854507446289,-500.08160400390625
313141.6075729066,92.0883560180664,-255.64056396484375,-213.40484619140625,-339.6738586425781,158.607666015625,264.05584716796875,122.98715209960938,-501.53192138671875
313141.61157290655,92.789794921875,-254.69932556152344,-212.3731689453125,-338.6357116699219,159.44749450683594,264.81024169921875,123.60315704345703,-500.585205078125
313141.61557290656,94.3240737915039,-252.80284118652344,-210.42872619628906,-336.6213073730469,161.1851043701172,266.3829650878906,125.2903060913086,-498.63226318359375
313141.6195729066,94.48944091796875,-252.57801818847656,-210.27484130859375,-336.33953857421875,161.3699493408203,266.57183837890625,125.47515869140625,-498.3599853515625
313141.6235729066,93.5861587524414,-253.6356658935547,-211.44041442871094,-337.4036865234375,160.45169067382812,265.7839660644531,124.38352966308594,-499.4096374511719
313141.62757290655,92.39411163330078,-255.01156616210938,-212.77435302734375,-338.7685852050781,158.97987365722656,264.32861328125,122.98464965820312,-500.650146484375
313141.63157290657,93.19697570800781,-253.9674072265625,-211.63626098632812,-337.5595703125,159.89413452148438,265.26885986328125,123.67060089111328,-499.60498046875
313141.6355729066,94.61383819580078,-252.11888122558594,-209.7837371826172,-335.6111145019531,161.5098419189453,266.7696838378906,125.17190551757812,-497.718994140625
313141.6395729066,94.67678833007812,-252.1803436279297,-209.89764404296875,-335.7569885253906,161.44039916992188,266.5923156738281,125.36225128173828,-497.7609558105469
313141.64357290656,93.61863708496094,-253.71661376953125,-211.36798095703125,-337.1813659667969,160.01803588867188,265.309326171875,124.20267486572266,-499.1888122558594
313141.6475729066,92.34915161132812,-255.2119140625,-212.89276123046875,-338.7920837402344,158.4602813720703,263.7770690917969,122.72235870361328,-500.6621398925781
313141.6515729066,93.12852478027344,-254.03135681152344,-211.83560180664062,-337.80987548828125,159.4839630126953,264.69683837890625,123.47376251220703,-499.6679382324219
313141.6555729066,94.76771545410156,-252.01397705078125,-209.84669494628906,-335.7769775390625,161.42041015625,266.6108093261719,125.30130004882812,-497.68951416015625
313141.65957290656,94.81217956542969,-252.17384338378906,-209.9720916748047,-335.87640380859375,161.20608520507812,266.3450012207031,125.44418334960938,-497.70849609375
313141.6635729066,93.64810943603516,-253.72659301757812,-211.4768829345703,-337.2677917480469,159.74325561523438,265.1599426269531,124.1317367553711,-499.1048889160156
313141.6675729066,92.62242889404297,-254.74827575683594,-212.62347412109375,-338.44384765625,158.67611694335938,264.1722412109375,122.90821075439453,-500.2124938964844
313141.6715729066,93.21246337890625,-253.8270263671875,-211.62327575683594,-337.55706787109375,159.48696899414062,264.8741760253906,123.6091537475586,-499.2967224121094
313141.67557290656,94.88961791992188,-251.83810424804688,-209.58389282226562,-335.5521545410156,161.36146545410156,266.5748291015625,125.48365020751953,-497.2848205566406
313141.6795729066,94.90760803222656,-251.78414916992188,-209.5694122314453,-335.5251770019531,161.3155059814453,266.4029541015625,125.68649291992188,-497.10198974609375
313141.6835729066,93.66909790039062,-253.10459899902344,-210.97378540039062,-336.92657470703125,159.9460906982422,265.0975036621094,124.42100524902344,-498.3544616699219
313141.6875729066,92.45556640625,-254.89166259765625,-212.71189880371094,-338.74212646484375,158.4622802734375,263.7585754394531,122.99114990234375,-500.30792236328125
313141.69157290657,93.36634063720703,-254.26116943359375,-211.94100952148438,-338.1166076660156,159.6992950439453,265.2049255371094,123.8659439086914,-500.090576171875
313141.6955729066,94.85115051269531,-252.55104064941406,-210.2308807373047,-336.53936767578125,161.797607421875,267.2547912597656,125.63803100585938,-498.6282653808594
313141.6995729066,94.7607192993164,-252.6884307861328,-210.41773986816406,-336.7292175292969,161.77713012695312,267.2432861328125,125.69898223876953,-498.78863525390625
313141.7035729066,93.59415435791016,-254.12478637695312,-211.9120330810547,-338.22503662109375,160.31629943847656,265.7739562988281,124.40151977539062,-500.1755065917969
313141.70757290657,92.63542175292969,-255.4976806640625,-213.2154998779297,-339.5050048828125,158.91441345214844,264.40057373046875,123.15851593017578,-501.50396728515625
313141.7115729066,93.48424530029297,-254.47850036621094,-212.12486267089844,-338.46533203125,160.0170440673828,265.57513427734375,124.0003433227539,-500.6771240234375
313141.7155729066,94.9006118774414,-252.7388916015625,-210.35528564453125,-336.7102355957031,162.05191040039062,267.57452392578125,125.60855102539062,-499.0923767089844
313141.71957290656,95.0849609375,-252.7089080810547,-210.33380126953125,-336.600341796875,162.1013641357422,267.56951904296875,125.83637237548828,-498.9704895019531
313141.7235729066,93.89041900634766,-254.3086395263672,-211.8880615234375,-338.0656433105469,160.4686737060547,266.1376647949219,124.53840637207031,-500.4118347167969
313141.7275729066,92.80728149414062,-255.675048828125,-213.25546264648438,-339.5479736328125,159.11276245117188,264.770263671875,123.26193237304688,-501.749755859375
313141.7315729066,93.61863708496094,-254.3426055908203,-212.09689331054688,-338.47381591796875,160.34127807617188,265.87939453125,124.04230499267578,-500.7635498046875
313141.73557290656,95.08695983886719,-252.51806640625,-210.298828125,-336.687744140625,162.08738708496094,267.5030822753906,125.6889877319336,-499.0729064941406
313141.7395729066,95.031005859375,-252.63546752929688,-210.46719360351562,-336.8741149902344,162.04991149902344,267.5115661621094,125.7534408569336,-499.1953125
313141.74357290653,93.95936584472656,-254.01736450195312,-211.8970489501953,-338.26251220703125,160.6625213623047,266.1906433105469,124.58537292480469,-500.4842834472656
313141.74757290655,92.76831817626953,-255.3792724609375,-213.26046752929688,-339.62640380859375,159.2241668701172,264.769775390625,123.23145294189453,-501.7337646484375
313141.75157290656,93.56468200683594,-254.39356994628906,-212.14385986328125,-338.453857421875,160.21588134765625,265.933349609375,123.93639373779297,-500.8080139160156
313141.7555729066,95.01801300048828,-252.4296417236328,-210.18142700195312,-336.5054016113281,162.0648956298828,267.6429748535156,125.64352416992188,-498.89154052734375
313141.75957290654,94.99203491210938,-252.41464233398438,-210.2373809814453,-336.5833435058594,161.969482421875,267.40167236328125,125.85235595703125,-498.775634765625
313141.76357290655,93.87293243408203,-254.1287841796875,-211.93551635742188,-338.2809753417969,160.3083038330078,265.82940673828125,124.58087158203125,-500.36737060546875
313141.76757290657,92.74433135986328,-255.6785430908203,-213.39984130859375,-339.7702941894531,158.80551147460938,264.42254638671875,123.1944808959961,-501.8232116699219
313141.7715729066,93.4802474975586,-254.59939575195312,-212.2847442626953,-338.71014404296875,159.80621337890625,265.4052734375,123.91990661621094,-500.8179931640625
313141.7755729066,94.80668640136719,-252.8338165283203,-210.53663635253906,-337.0199890136719,161.5353240966797,266.9215393066406,125.51412963867188,-499.0813903808594
313141.77957290655,95.09545135498047,-252.6384735107422,-210.3397979736328,-336.7292175292969,161.85606384277344,267.2502746582031,125.8753433227539,-498.775634765625
313141.78357290657,94.15970611572266,-254.0733184814453,-211.6437530517578,-337.94024658203125,160.68051147460938,266.3065490722656,124.78221130371094,-500.0845947265625
313141.7875729066,93.33686065673828,-255.34031677246094,-212.91822814941406,-339.2072448730469,159.30909729003906,265.08551025390625,123.67310333251953,-501.4270324707031
313141.7915729066,93.94037628173828,-254.37408447265625,-211.90403747558594,-338.2539978027344,160.14793395996094,265.8274230957031,124.39502716064453,-500.5382385253906
313141.79557290656,95.2368392944336,-252.82931518554688,-210.25735473632812,-336.62530517578125,161.61326599121094,266.9804992675781,125.87084197998047,-498.9245300292969
313141.7995729066,95.55558776855469,-252.61099243164062,-210.1424560546875,-336.4599304199219,161.98497009277344,267.3721923828125,126.15811157226562,-498.8880615234375
313141.8035729066,94.65230560302734,-253.94992065429688,-211.53184509277344,-337.88079833984375,160.85037231445312,266.4194641113281,125.16690826416016,-500.3179016113281
313141.8075729066,93.4622573852539,-255.45022583007812,-213.08010864257812,-339.5524597167969,159.58238220214844,265.1854248046875,123.78750610351562,-501.93310546875
313141.81157290656,94.01432037353516,-254.63087463378906,-212.20130920410156,-338.6856689453125,160.47866821289062,266.20562744140625,124.27711486816406,-501.2901306152344
313141.8155729066,95.36873626708984,-252.8982696533203,-210.41273498535156,-336.8825988769531,162.30821228027344,267.96221923828125,125.82537841796875,-499.6749267578125
313141.8195729066,95.49713134765625,-252.8433074951172,-210.39324951171875,-336.75970458984375,162.52352905273438,268.2779541015625,126.02671813964844,-499.6859130859375
313141.8235729066,94.42598724365234,-254.11378479003906,-211.75765991210938,-338.06964111328125,161.29901123046875,267.0769348144531,124.84516143798828,-500.91943359375
313141.82757290656,93.31687927246094,-255.57212829589844,-213.2279815673828,-339.5599670410156,159.80120849609375,265.57012939453125,123.45777130126953,-502.29632568359375
313141.8315729066,93.84395599365234,-254.86119079589844,-212.44361877441406,-338.81256103515625,160.35177612304688,266.1476745605469,124.05879211425781,-501.6128845214844
313141.8355729066,95.20536804199219,-253.27195739746094,-210.76295471191406,-337.2243347167969,161.87954711914062,267.53955078125,125.77491760253906,-500.01214599609375
313141.8395729066,95.32527160644531,-253.17654418945312,-210.66952514648438,-337.1548767089844,162.01194763183594,267.60150146484375,126.08517456054688,-499.7763366699219
313141.84357290657,94.38402557373047,-254.09530639648438,-211.83509826660156,-338.3084716796875,161.14064025878906,266.8331298828125,125.04500579833984,-500.74505615234375
313141.8475729066,93.37882995605469,-255.3502960205078,-213.15853881835938,-339.5909423828125,159.82818603515625,265.6275939941406,123.77651977539062,-502.0415344238281
313141.8515729066,93.99483489990234,-254.60040283203125,-212.2577667236328,-338.7086486816406,160.52713012695312,266.31353759765625,124.427001953125,-501.2471618652344
313141.8555729066,95.16339874267578,-252.69541931152344,-210.40374755859375,-336.93505859375,162.09437561035156,267.657470703125,125.98574829101562,-499.206298828125
313141.8595729066,95.13092803955078,-252.71990966796875,-210.46820068359375,-337.0094909667969,161.99395751953125,267.463623046875,126.10066223144531,-499.09039306640625
313141.8635729066,94.03030395507812,-254.27615356445312,-212.033447265625,-338.6087341308594,160.64154052734375,266.27105712890625,124.87813568115234,-500.6251525878906
313141.8675729066,92.98713684082031,-255.7364959716797,-213.49777221679688,-340.0975341796875,159.1537322998047,264.8402099609375,123.58417510986328,-502.0345458984375
313141.87157290656,93.53070831298828,-254.85169982910156,-212.56951904296875,-339.2127380371094,159.99755859375,265.63458251953125,124.17120361328125,-501.2606506347656
313141.8755729066,95.10344696044922,-252.91075134277344,-210.61508178710938,-337.25030517578125,162.04042053222656,267.65545654296875,125.95577239990234,-499.4450988769531
313141.8795729066,95.14141845703125,-252.9792022705078,-210.7819366455078,-337.4396667480469,162.08538818359375,267.7169189453125,126.11614990234375,-499.57501220703125
313141.8835729066,94.49693298339844,-254.0663299560547,-211.90904235839844,-338.5032958984375,161.00674438476562,266.81463623046875,125.27981567382812,-500.6656188964844
313141.88757290656,93.38732147216797,-255.57162475585938,-213.35488891601562,-339.9641418457031,159.60386657714844,265.58111572265625,123.88893127441406,-502.1964111328125
313141.8915729066,93.67708587646484,-254.9511260986328,-212.66893005371094,-339.3366394042969,160.36126708984375,266.3270263671875,124.21516418457031,-501.7717590332031
313141.89557290653,95.15640258789062,-253.10809326171875,-210.76644897460938,-337.3921813964844,162.21478271484375,267.9752197265625,125.7999038696289,-499.9447021484375
313141.89957290655,95.36773681640625,-252.8468017578125,-210.74346923828125,-337.3857116699219,162.27523803710938,267.75787353515625,126.04869842529297,-499.80181884765625
313141.90357290657,94.60285186767578,-254.32012939453125,-212.14984130859375,-338.7596130371094,161.0032501220703,266.7047119140625,125.10795593261719,-501.3036193847656
313141.9075729066,93.4522705078125,-255.99728393554688,-213.7075958251953,-340.3223571777344,159.5688934326172,265.50018310546875,123.68659210205078,-502.9662780761719
313141.91157290654,94.38902282714844,-254.79974365234375,-212.41213989257812,-338.9869079589844,160.8958282470703,266.9909973144531,124.60335540771484,-501.879150390625
313141.91557290655,95.80738830566406,-252.86378479003906,-210.46519470214844,-337.0409851074219,162.69039916992188,268.5797119140625,126.27851867675781,-499.93170166015625
313141.91957290657,95.84535217285156,-252.7463836669922,-210.43771362304688,-336.9770202636719,162.66091918945312,268.4453430175781,126.42939758300781,-499.73236083984375
313141.9235729066,94.71575927734375,-254.17373657226562,-211.96099853515625,-338.4288635253906,161.0237274169922,266.77716064453125,125.10345458984375,-501.038330078125
313141.92757290654,93.45176696777344,-255.5731201171875,-213.38685607910156,-339.876708984375,159.43800354003906,265.2449035644531,123.60215759277344,-502.3213195800781
313141.93157290656,93.92488861083984,-254.86068725585938,-212.52105712890625,-339.0158996582031,160.08497619628906,265.8459167480469,124.08727264404297,-501.598388671875
313141.9355729066,95.31327819824219,-253.09710693359375,-210.71998596191406,-337.17987060546875,161.72767639160156,267.377197265625,125.73595428466797,-499.84228515625
313141.9395729066,95.2583236694336,-253.06813049316406,-210.81141662597656,-337.1893615722656,161.7561492919922,267.4006652832031,125.72845458984375,-499.8058166503906
313141.94357290654,94.14771270751953,-254.48699951171875,-212.33470153808594,-338.7391052246094,160.3457794189453,265.976318359375,124.47196197509766,-501.1527404785156
313141.94757290656,93.2304458618164,-255.64407348632812,-213.54273986816406,-339.9426574707031,159.33908081054688,265.1524658203125,123.27191925048828,-502.36376953125
313141.9515729066,93.80998229980469,-254.6108856201172,-212.49757385253906,-338.928955078125,160.4052276611328,266.28106689453125,123.86494445800781,-501.5434265136719
313141.9555729066,94.8746337890625,-253.0546417236328,-210.89735412597656,-337.3861999511719,161.8385772705078,267.57452392578125,125.31928253173828,-499.95770263671875
313141.95957290655,94.79969024658203,-253.2095184326172,-211.11717224121094,-337.656982421875,161.75914001464844,267.43914794921875,125.44668579101562,-500.0721130371094
313141.96357290656,93.80548858642578,-254.88467407226562,-212.734375,-339.229736328125,160.24285888671875,266.0187683105469,124.2536392211914,-501.6473388671875
313141.9675729066,92.951171875,-256.37298583984375,-214.0348358154297,-340.48870849609375,158.95338439941406,264.8721923828125,123.1405258178711,-503.0322265625
313141.9715729066,93.5861587524414,-255.35130310058594,-213.0771026611328,-339.5444641113281,159.8756561279297,265.7649841308594,123.84496307373047,-502.27532958984375
313141.97557290655,95.07047271728516,-253.46929931640625,-211.17312622070312,-337.6510009765625,161.7811279296875,267.60650634765625,125.6060562133789,-500.4877624511719
313141.97957290657,95.15790557861328,-253.3618927001953,-211.14015197753906,-337.6344909667969,162.12185668945312,267.9587097167969,125.76642608642578,-500.3638610839844
313141.9835729066,94.01081848144531,-254.74928283691406,-212.60498046875,-339.0948181152344,160.61355590820312,266.3874816894531,124.44049072265625,-501.609375
313141.9875729066,93.0171127319336,-255.93983459472656,-213.70010375976562,-340.0875244140625,159.2021942138672,265.1210021972656,123.16150665283203,-502.5451354980469
313141.99157290655,93.42478942871094,-255.13546752929688,-212.8203125,-339.273193359375,159.5968780517578,265.39178466796875,123.62164306640625,-501.67681884765625
313141.99557290657,94.42349243164062,-253.54124450683594,-211.2815399169922,-337.77337646484375,161.10166931152344,266.56732177734375,124.8646469116211,-500.1720275878906
313141.9995729066,94.45596313476562,-253.63717651367188,-211.47039794921875,-337.8742980957031,160.92930603027344,266.33502197265625,125.0425033569336,-500.20050048828125
313142.0035729066,93.77600860595703,-254.79673767089844,-212.63546752929688,-338.9874267578125,160.01953125,265.5096740722656,124.16670989990234,-501.3200988769531
313142.00757290656,93.31937408447266,-255.65655517578125,-213.35888671875,-339.5689392089844,159.5269317626953,265.51416015625,123.30139923095703,-502.266357421875
313142.0115729066,94.30908203125,-254.41854858398438,-211.990478515625,-338.0941467285156,160.86087036132812,267.12139892578125,124.24164581298828,-501.19970703125
313142.0155729066,95.5116195678711,-252.67593383789062,-210.2753448486328,-336.4554443359375,162.48556518554688,268.50927734375,125.80039978027344,-499.4750671386719
313142.01957290655,95.40570831298828,-252.90975952148438,-210.60008239746094,-336.8391418457031,162.1693115234375,268.0251770019531,125.84286499023438,-499.6734313964844
313142.02357290656,94.36753845214844,-254.5224609375,-212.2137908935547,-338.5078125,160.46817016601562,266.29205322265625,124.65381622314453,-501.231689453125
313142.0275729065,93.22895050048828,-255.955810546875,-213.64215087890625,-339.9366455078125,159.1482391357422,265.0924987792969,123.2784194946289,-502.6960144042969
313142.03157290653,94.29409790039062,-254.489990234375,-212.1253662109375,-338.3319396972656,160.86285400390625,266.9420471191406,124.29010772705078,-501.3980407714844
313142.03557290655,95.49613189697266,-252.70741271972656,-210.35928344726562,-336.5158996582031,162.5215301513672,268.4698181152344,125.75493621826172,-499.5744934082031
313142.03957290656,95.69697570800781,-252.6114959716797,-210.26185607910156,-336.4159851074219,162.60147094726562,268.454833984375,126.08067321777344,-499.38916015625
313142.0435729065,95.01801300048828,-253.8704833984375,-211.49337768554688,-337.6285095214844,161.30850219726562,267.2492980957031,125.24834442138672,-500.521240234375
313142.04757290654,93.62762451171875,-255.6051025390625,-213.24147033691406,-339.4140930175781,159.6453399658203,265.599609375,123.57218170166016,-502.2703552246094
313142.05157290655,93.97685241699219,-254.931640625,-212.52305603027344,-338.6556701660156,160.1789093017578,266.09320068359375,123.92739868164062,-501.684814453125
313142.05557290657,95.32327270507812,-253.21701049804688,-210.81741333007812,-337.0284729003906,161.89453125,267.6839294433594,125.49414825439453,-500.0726013183594
313142.0595729065,95.36673736572266,-253.2544708251953,-210.90684509277344,-337.2083435058594,162.0324249267578,267.68792724609375,125.65801239013672,-500.1875
313142.06357290654,94.60034942626953,-254.43003845214844,-212.11537170410156,-338.314453125,160.8029022216797,266.5568542480469,124.71027374267578,-501.2951354980469
313142.06757290656,93.28939819335938,-256.1551513671875,-213.76205444335938,-340.0130920410156,159.02833557128906,264.7657775878906,123.1934814453125,-502.8928527832031
313142.07157290657,93.64361572265625,-255.3233184814453,-212.9337158203125,-339.23773193359375,159.7897186279297,265.4122619628906,123.6201400756836,-502.1424560546875
313142.0755729065,94.98054504394531,-253.36839294433594,-211.0941925048828,-337.30926513671875,161.5473175048828,267.26727294921875,125.17290496826172,-500.3109130859375
313142.07957290654,95.25932312011719,-253.2294921875,-210.966796875,-337.0364685058594,161.76214599609375,267.63397216796875,125.41071319580078,-500.1285705566406
313142.08357290656,94.29859161376953,-254.5998992919922,-212.2837371826172,-338.2380065917969,160.41122436523438,266.3265380859375,124.23464965820312,-501.33258056640625
313142.0875729066,93.32886505126953,-255.68702697753906,-213.42832946777344,-339.37261962890625,159.2486572265625,265.16644287109375,123.06259155273438,-502.37127685546875
313142.0915729066,93.5322036743164,-255.12847900390625,-212.8772735595703,-338.8585205078125,159.5309295654297,265.2998352050781,123.29940032958984,-501.8481750488281
313142.09557290655,94.6583023071289,-253.56222534179688,-211.3474884033203,-337.3457336425781,160.87884521484375,266.3699951171875,124.67080688476562,-500.2694396972656
313142.09957290656,95.29629516601562,-252.9832000732422,-210.78244018554688,-336.52337646484375,161.82809448242188,267.7169189453125,125.27681732177734,-499.7243957519531
313142.1035729066,94.18768310546875,-254.36009216308594,-212.2257843017578,-337.7629089355469,160.44869995117188,266.5693359375,123.91740417480469,-501.05230712890625
313142.1075729066,92.88322448730469,-256.0102844238281,-213.7880401611328,-339.338134765625,158.82948303222656,264.9246520996094,122.36614990234375,-502.6150817871094
313142.11157290655,93.32386779785156,-255.28285217285156,-213.0556182861328,-338.7830810546875,159.33409118652344,265.1184997558594,122.95467376708984,-502.02655029296875
313142.11557290656,94.7032699584961,-253.6731414794922,-211.38046264648438,-337.1878662109375,160.8998260498047,266.6402587890625,124.6383285522461,-500.4977722167969
313142.1195729066,94.79619598388672,-253.8055419921875,-211.5108642578125,-337.31524658203125,160.7444610595703,266.515869140625,124.80169677734375,-500.5352478027344
313142.1235729066,93.96935272216797,-255.0915069580078,-212.84129333496094,-338.6336975097656,159.49046325683594,265.27435302734375,123.86844635009766,-501.6888122558594
313142.12757290655,93.2259521484375,-255.72250366210938,-213.6126708984375,-339.4075927734375,159.57789611816406,265.88287353515625,122.8797378540039,-502.611083984375
313142.13157290657,93.93537902832031,-254.61688232421875,-212.48158264160156,-338.2295227050781,160.70199584960938,266.96502685546875,123.58467102050781,-501.7012939453125
313142.1355729066,95.5600814819336,-252.7089080810547,-210.49267578125,-336.2840881347656,162.60047912597656,268.6941223144531,125.4671630859375,-499.8952331542969
313142.1395729066,95.82037353515625,-252.8647918701172,-210.60757446289062,-336.43646240234375,162.45909118652344,268.5572509765625,125.83837127685547,-499.9402160644531
313142.14357290656,95.06547546386719,-254.2062225341797,-211.93551635742188,-337.8123474121094,161.2230682373047,267.41015625,124.9930419921875,-501.2096862792969
313142.1475729066,93.953369140625,-255.62757873535156,-213.3678741455078,-339.4080810546875,159.88365173339844,266.06072998046875,123.71756744384766,-502.7344665527344
313142.1515729066,94.02031707763672,-255.2638702392578,-212.90374755859375,-338.9774169921875,160.1724090576172,266.31103515625,123.85895538330078,-502.4157409667969
313142.1555729066,95.44567108154297,-253.38587951660156,-211.01776123046875,-337.0414733886719,161.91502380371094,267.9497375488281,125.56359100341797,-500.520751953125
313142.15957290656,95.6874771118164,-253.2364959716797,-210.90834045410156,-336.82763671875,162.01194763183594,268.04266357421875,125.86334991455078,-500.2769470214844
313142.1635729066,94.57537078857422,-254.8007354736328,-212.49107360839844,-338.36041259765625,160.4986572265625,266.677734375,124.58837127685547,-501.7562561035156
313142.1675729066,93.34435272216797,-256.4584045410156,-214.02484130859375,-339.9771423339844,158.96737670898438,265.2713623046875,123.15201568603516,-503.3139953613281
313142.17157290655,93.84395599365234,-255.60609436035156,-213.04063415527344,-339.058349609375,159.7467498779297,265.99578857421875,123.81898498535156,-502.4407043457031
313142.17557290656,95.31977844238281,-253.54774475097656,-211.12815856933594,-337.2188415527344,161.62374877929688,267.700439453125,125.58906555175781,-500.6116638183594
313142.1795729066,95.43318176269531,-253.63717651367188,-211.3115234375,-337.3537292480469,161.5742950439453,267.5755310058594,125.71347045898438,-500.6876220703125
313142.1835729066,94.73324584960938,-254.65835571289062,-212.59698486328125,-338.36492919921875,160.5171356201172,266.5733337402344,124.84466552734375,-501.5569152832031
313142.18757290655,93.59015655517578,-256.0057678222656,-213.97288513183594,-339.7193298339844,159.15672302246094,265.2373962402344,123.48125457763672,-502.81689453125
313142.19157290657,94.08126831054688,-255.12548828125,-212.99766540527344,-338.80206298828125,159.95709228515625,265.99627685546875,124.07877349853516,-502.0070495605469
313142.1955729065,95.2992935180664,-253.47579956054688,-211.2545623779297,-337.1438903808594,161.5118408203125,267.3007507324219,125.70747375488281,-500.305419921875
313142.19957290654,96.12213134765625,-252.68992614746094,-210.56710815429688,-336.4894104003906,162.01344299316406,267.5160827636719,126.52532196044922,-499.3841552734375
313142.20357290655,95.29179382324219,-253.86997985839844,-211.8041229248047,-337.60101318359375,160.87435913085938,266.7322082519531,125.4012222290039,-500.5357360839844
313142.20757290657,94.29759216308594,-255.42724609375,-213.17352294921875,-338.79156494140625,159.76873779296875,266.2445983886719,124.07877349853516,-502.1014709472656
313142.2115729065,94.81517791748047,-254.47450256347656,-212.27125549316406,-337.9842224121094,160.94529724121094,267.3297119140625,124.65132141113281,-501.5184326171875
313142.21557290654,96.20407104492188,-252.51956176757812,-210.42123413085938,-336.234130859375,162.87374877929688,268.9354248046875,126.30998992919922,-499.7783508300781
313142.21957290656,96.28949737548828,-252.73988342285156,-210.49867248535156,-336.2521057128906,162.59597778320312,268.5567321777344,126.4593734741211,-499.658447265625
313142.2235729066,95.31977844238281,-254.1097869873047,-211.96649169921875,-337.67047119140625,161.1206512451172,267.2752685546875,125.3117904663086,-500.9793701171875
313142.22757290653,94.03780364990234,-255.43173217773438,-213.45530700683594,-339.20025634765625,159.71827697753906,265.9728088378906,123.82247924804688,-502.4012451171875
313142.23157290654,94.74723052978516,-254.3575897216797,-212.2632598876953,-338.0521545410156,160.67800903320312,266.8666076660156,124.6543197631836,-501.3146057128906
313142.23557290656,95.9737548828125,-252.73988342285156,-210.64955139160156,-336.4839172363281,162.36465454101562,268.36688232421875,126.14962005615234,-499.8332824707031
313142.2395729066,96.07917022705078,-253.0011749267578,-210.92283630371094,-336.7372131347656,162.27073669433594,268.2110290527344,126.27701568603516,-500.1185607910156
313142.24357290653,95.03600311279297,-254.64686584472656,-212.50405883789062,-338.389892578125,160.3262939453125,266.27557373046875,125.16590881347656,-501.4704895019531
313142.24757290655,93.64461517333984,-256.3919677734375,-214.16622924804688,-340.12200927734375,158.47976684570312,264.60040283203125,123.6091537475586,-503.03125
313142.25157290656,94.20966339111328,-255.12498474121094,-212.9676971435547,-338.8675231933594,160.07199096679688,266.3440246582031,124.19967651367188,-502.0715026855469
313142.2555729066,96.01871490478516,-252.82232666015625,-210.72598266601562,-336.57086181640625,162.422119140625,268.60369873046875,126.1286392211914,-500.0296325683594
313142.25957290654,96.4049072265625,-252.65895080566406,-210.58059692382812,-336.3490295410156,162.74685668945312,268.9768981933594,126.539306640625,-499.8867492675781
313142.26357290655,95.4826431274414,-254.0788116455078,-211.93801879882812,-337.7269287109375,161.258544921875,267.3502197265625,125.49414825439453,-501.00634765625
313142.26757290657,94.01232147216797,-255.7774658203125,-213.60618591308594,-339.4170837402344,159.4679718017578,265.6710510253906,123.81349182128906,-502.6050720214844
313142.2715729066,94.66829681396484,-254.46701049804688,-212.4376220703125,-338.3074645996094,160.6280517578125,266.903076171875,124.55689239501953,-501.5644226074219
313142.27557290654,96.01622009277344,-252.68392944335938,-210.61807250976562,-336.5828552246094,162.3866424560547,268.47930908203125,126.23605346679688,-499.8133239746094
313142.27957290655,96.2550277709961,-252.5810089111328,-210.58709716796875,-336.5568542480469,162.45608520507812,268.4812927246094,126.51882934570312,-499.69342041015625
313142.28357290657,95.2618179321289,-254.12777709960938,-212.09889221191406,-338.1515808105469,161.02723693847656,267.19781494140625,125.44268798828125,-501.1827087402344
313142.2875729066,94.104248046875,-255.93634033203125,-213.71759033203125,-339.8327331542969,159.3330841064453,265.7225036621094,124.04979705810547,-502.92633056640625
313142.2915729066,94.79769134521484,-255.0970001220703,-212.7093963623047,-338.83953857421875,160.21287536621094,266.6577453613281,124.78871154785156,-502.1599426269531
313142.29557290656,95.99723052978516,-253.2794647216797,-210.9293212890625,-337.00250244140625,162.0933837890625,268.4818115234375,126.29350280761719,-500.43182373046875
313142.2995729066,96.14261627197266,-253.1160888671875,-210.8663787841797,-336.92108154296875,162.04791259765625,268.2579650878906,126.51583099365234,-500.1365661621094
313142.3035729066,95.01801300048828,-254.74578857421875,-212.4775848388672,-338.4278564453125,160.4342041015625,266.8081359863281,125.10595703125,-501.5928955078125
313142.3075729066,93.85794067382812,-256.24609375,-213.91693115234375,-339.9131774902344,158.76553344726562,265.1964416503906,123.77801513671875,-502.9527893066406
313142.31157290656,94.37752532958984,-255.35879516601562,-213.04263305664062,-339.2052307128906,159.4499969482422,265.66107177734375,124.40501403808594,-502.29681396484375
313142.3155729066,95.85884094238281,-253.54774475097656,-211.14215087890625,-337.32574462890625,161.6302490234375,267.7274169921875,126.11215209960938,-500.61566162109375
313142.3195729066,96.57976531982422,-253.03115844726562,-210.58509826660156,-336.60333251953125,162.43161010742188,268.8809814453125,126.8150863647461,-500.0396423339844
313142.3235729066,95.90730285644531,-253.9748992919922,-211.6832275390625,-337.6369934082031,161.5528106689453,268.25848388671875,125.9098129272461,-501.059814453125
313142.32757290656,94.4005126953125,-256.02874755859375,-213.62017822265625,-339.66986083984375,159.598876953125,266.1936340332031,124.13773345947266,-503.0362243652344
313142.3315729066,95.09245300292969,-255.01507568359375,-212.49607849121094,-338.5767517089844,160.63055419921875,267.2367858886719,124.92210388183594,-502.0625
313142.3355729066,96.37442779541016,-253.04563903808594,-210.64254760742188,-336.8201599121094,162.38714599609375,268.6906433105469,126.54430389404297,-500.197998046875
313142.3395729066,96.51232147216797,-253.08810424804688,-210.69300842285156,-336.8231506347656,162.32919311523438,268.5462341308594,126.69318389892578,-500.1585388183594
313142.34357290657,95.79988861083984,-254.1397705078125,-211.81761169433594,-337.8977966308594,161.30650329589844,267.6354675292969,125.806396484375,-501.0977783203125
313142.3475729066,94.15320587158203,-255.72300720214844,-213.477783203125,-339.617919921875,159.42800903320312,265.70452880859375,124.03530883789062,-502.4721984863281
313142.3515729066,94.62383270263672,-254.78775024414062,-212.57101440429688,-338.6851501464844,160.13844299316406,266.38848876953125,124.5414047241211,-501.5843811035156
313142.3555729066,95.94676971435547,-253.00218200683594,-210.74996948242188,-336.8416442871094,161.797607421875,267.9077453613281,126.18559265136719,-499.7783508300781
313142.3595729066,96.15860748291016,-252.86978149414062,-210.65704345703125,-336.66778564453125,161.7456512451172,267.8073425292969,126.4358901977539,-499.52105712890625
313142.3635729066,95.38072967529297,-253.89146423339844,-211.7666473388672,-337.7384033203125,160.75694274902344,266.990478515625,125.44318389892578,-500.5092468261719
313142.3675729066,94.00881958007812,-255.56863403320312,-213.36038208007812,-339.4075927734375,159.19569396972656,265.46722412109375,123.83047485351562,-502.11297607421875
313142.3715729066,94.57237243652344,-255.19293212890625,-212.70240783691406,-338.67315673828125,159.6238555908203,266.0567321777344,124.30459594726562,-501.68182373046875
313142.3755729066,95.63751983642578,-253.3444061279297,-211.06820678710938,-337.0739440917969,161.4598846435547,267.8503112792969,125.72096252441406,-500.14105224609375
313142.3795729066,96.05068969726562,-253.04014587402344,-210.9098358154297,-337.0149841308594,161.9644775390625,268.2844543457031,126.29700469970703,-500.0201416015625
313142.3835729066,95.33076477050781,-254.3316192626953,-212.19581604003906,-338.3514404296875,160.83888244628906,267.2627868652344,125.43119812011719,-501.23516845703125
313142.3875729066,93.59964752197266,-256.3150329589844,-214.20021057128906,-340.45074462890625,159.06729125976562,265.59210205078125,123.49424743652344,-503.2520751953125
313142.39157290664,94.14571380615234,-255.4402313232422,-213.2804412841797,-339.6144104003906,159.78872680664062,266.2185974121094,124.07128143310547,-502.4781799316406
313142.3955729066,95.59505462646484,-253.45831298828125,-211.35049438476562,-337.72393798828125,161.6272430419922,267.8463134765625,125.77742004394531,-500.6011657714844
313142.3995729066,95.9083023071289,-253.4048614501953,-211.3115234375,-337.6944580078125,161.67770385742188,267.765869140625,126.1286392211914,-500.5012512207031
313142.4035729066,95.06147766113281,-254.8207244873047,-212.7268829345703,-339.1268005371094,160.56060791015625,266.8515930175781,125.03451538085938,-501.96807861328125
313142.40757290664,93.90440368652344,-256.28155517578125,-214.1167755126953,-340.57464599609375,159.46197509765625,266.1017150878906,123.62813568115234,-503.52435302734375
313142.4115729066,94.43997955322266,-255.524169921875,-213.2354736328125,-339.7627868652344,160.03152465820312,266.5898132324219,124.27661895751953,-502.7634582519531
313142.4155729066,95.85934448242188,-253.56173706054688,-211.28903198242188,-337.9207763671875,161.73866271972656,268.02764892578125,126.0856704711914,-500.77154541015625
313142.4195729066,95.86083984375,-253.68113708496094,-211.32550048828125,-337.8828125,161.7886199951172,268.0876159667969,126.205078125,-500.7205810546875
313142.42357290664,95.28280639648438,-254.7003173828125,-212.39364624023438,-338.90997314453125,160.77392578125,267.18133544921875,125.461669921875,-501.72576904296875
313142.4275729066,94.21415710449219,-256.1206970214844,-213.88595581054688,-340.43377685546875,159.40252685546875,265.9812927246094,123.97535705566406,-503.2810363769531
313142.4315729066,94.69577026367188,-254.96710205078125,-212.83929443359375,-339.41558837890625,160.58108520507812,267.07843017578125,124.50443267822266,-502.39373779296875
313142.43557290663,96.29849243164062,-252.8647918701172,-210.70950317382812,-337.2218322753906,162.70138549804688,269.1302795410156,126.35995483398438,-500.2794494628906
313142.43957290665,96.64321899414062,-252.6259765625,-210.50515747070312,-336.99102783203125,162.96368408203125,269.2831726074219,126.81008911132812,-499.9407043457031
313142.4435729066,95.6764907836914,-254.18972778320312,-212.033447265625,-338.51080322265625,161.4179229736328,267.8128356933594,125.66700744628906,-501.3625793457031
313142.4475729066,94.4339828491211,-255.87088012695312,-213.70559692382812,-340.2049560546875,159.6927947998047,266.1671447753906,124.17120361328125,-503.0462341308594
313142.45157290663,94.64331817626953,-255.51316833496094,-213.22499084472656,-339.7113342285156,159.75924682617188,266.20361328125,124.44947814941406,-502.65203857421875
313142.45557290665,96.06468200683594,-253.72410583496094,-211.4374237060547,-337.8583068847656,161.3175048828125,267.7079162597656,126.1611099243164,-500.8974304199219
313142.4595729066,96.733642578125,-252.9457244873047,-210.79592895507812,-337.10443115234375,162.6344451904297,269.21270751953125,126.80909729003906,-500.29193115234375
313142.4635729066,95.39671325683594,-254.48699951171875,-212.4840850830078,-338.7795715332031,161.19808959960938,267.7798767089844,125.28231811523438,-501.8616638183594
313142.46757290664,94.0892562866211,-256.07122802734375,-213.99937438964844,-340.32183837890625,159.60687255859375,266.2450866699219,123.78451538085938,-503.27703857421875
313142.4715729066,94.59635162353516,-255.3767852783203,-213.068115234375,-339.4015808105469,160.31629943847656,266.8570861816406,124.36405181884766,-502.49615478515625
313142.4755729066,96.17009735107422,-253.3928680419922,-211.11717224121094,-337.4126892089844,162.18580627441406,268.7091064453125,126.10865020751953,-500.6711120605469
313142.4795729066,96.5882568359375,-252.9222412109375,-210.87437438964844,-337.15838623046875,162.6199493408203,269.1003112792969,126.62024688720703,-500.3693542480469
313142.48357290664,95.59355926513672,-254.5814208984375,-212.44810485839844,-338.74261474609375,161.01524353027344,267.5860290527344,125.5146255493164,-501.8506774902344
313142.4875729066,94.28910064697266,-256.256591796875,-214.0538330078125,-340.3148498535156,159.3710479736328,266.10369873046875,123.90691375732422,-503.4294128417969
313142.4915729066,94.91210174560547,-255.29783630371094,-212.94821166992188,-339.1607666015625,160.28431701660156,267.02447509765625,124.55839538574219,-502.4562072753906
313142.49557290657,96.28849792480469,-253.48829650878906,-211.09568786621094,-337.2673034667969,161.93350219726562,268.54376220703125,126.20307922363281,-500.6026916503906
313142.4995729066,96.09515380859375,-253.77406311035156,-211.51785278320312,-337.7069396972656,161.43240356445312,267.9237365722656,126.0606918334961,-500.843994140625
313142.5035729066,95.22685241699219,-255.201416015625,-212.9532012939453,-339.1372985839844,160.0659942626953,266.76617431640625,125.02701568603516,-502.22039794921875
313142.5075729066,93.97834777832031,-256.75018310546875,-214.4979705810547,-340.7984619140625,158.74305725097656,265.5926208496094,123.60565185546875,-503.8166198730469
313142.5115729066,94.52490997314453,-255.5871124267578,-213.4073486328125,-339.84722900390625,159.8866424560547,266.6252746582031,124.34856414794922,-502.7734375
313142.5155729066,96.16059875488281,-253.44232177734375,-211.20860290527344,-337.6824645996094,161.93650817871094,268.455810546875,126.33696746826172,-500.5976867675781
313142.5195729066,96.04519653320312,-253.714111328125,-211.41893005371094,-337.8868103027344,161.6927032470703,268.1285705566406,126.32698059082031,-500.7195739746094
313142.52357290656,95.36273956298828,-254.91664123535156,-212.69541931152344,-339.0858459472656,160.36326599121094,266.925537109375,125.39922332763672,-501.96209716796875
313142.5275729066,94.25862121582031,-256.41094970703125,-214.14476013183594,-340.55316162109375,159.13424682617188,265.8569030761719,123.97835540771484,-503.5543212890625
313142.5315729066,94.93058776855469,-255.37828063964844,-213.05262756347656,-339.5904235839844,160.23886108398438,266.8451232910156,124.80069732666016,-502.64654541015625
313142.5355729066,96.53680419921875,-253.36239624023438,-210.99476623535156,-337.6150207519531,162.14633178710938,268.5152893066406,126.73265838623047,-500.6086730957031
313142.5395729066,96.3609390258789,-253.49578857421875,-211.24256896972656,-337.8763122558594,161.8385772705078,268.12457275390625,126.6632080078125,-500.6916198730469
313142.5435729066,95.57157135009766,-254.83522033691406,-212.60198974609375,-339.100830078125,160.4861602783203,267.0609436035156,125.59456634521484,-501.9815673828125
313142.5475729066,93.96485900878906,-256.7087097167969,-214.5264434814453,-341.0742492675781,158.73655700683594,265.3742980957031,123.67759704589844,-503.9080505371094
313142.5515729066,94.50142669677734,-255.7689666748047,-213.52125549316406,-340.0480651855469,159.69529724121094,266.5223693847656,124.32557678222656,-503.0197448730469
313142.5555729066,96.2800064086914,-253.55374145507812,-211.2920379638672,-337.6909484863281,162.05191040039062,268.87548828125,126.25403594970703,-500.95538330078125
313142.5595729066,96.37442779541016,-253.3658905029297,-211.20809936523438,-337.6819763183594,162.37315368652344,268.9869079589844,126.4808578491211,-500.7725524902344
313142.5635729066,95.375732421875,-254.83721923828125,-212.65794372558594,-339.1448059082031,160.9512939453125,267.52056884765625,125.3637466430664,-502.11895751953125
313142.5675729066,94.22864532470703,-256.4244384765625,-214.15574645996094,-340.6490783691406,159.491455078125,266.2181091308594,123.96736907958984,-503.62176513671875
313142.5715729066,94.99803161621094,-255.33981323242188,-213.05262756347656,-339.5249938964844,160.37326049804688,267.12689208984375,124.7332534790039,-502.5881042480469
313142.5755729066,96.46036529541016,-253.3284149169922,-211.02374267578125,-337.50360107421875,162.2857208251953,268.94793701171875,126.54580688476562,-500.57769775390625
313142.5795729066,96.47035217285156,-253.18553161621094,-211.12066650390625,-337.56207275390625,162.23826599121094,268.8744812011719,126.625244140625,-500.56671142578125
313142.5835729066,95.70946502685547,-254.51597595214844,-212.47158813476562,-338.875,160.9817657470703,267.6629638671875,125.63803100585938,-501.7912292480469
313142.58757290663,94.03929901123047,-256.59130859375,-214.4130401611328,-340.943359375,158.88543701171875,265.5451354980469,123.7385482788086,-503.7381591796875
313142.5915729066,94.6118392944336,-255.74398803710938,-213.4323272705078,-339.9141845703125,159.72776794433594,266.42144775390625,124.32457733154297,-502.9088439941406
313142.5955729066,96.42839050292969,-253.37388610839844,-211.11917114257812,-337.56256103515625,162.08139038085938,268.70361328125,126.409912109375,-500.6146545410156
313142.5995729066,96.6537094116211,-253.2919464111328,-211.14515686035156,-337.5670471191406,162.09237670898438,268.6881408691406,126.67769622802734,-500.54473876953125
313142.60357290664,95.51361846923828,-254.878173828125,-212.8073272705078,-339.2392272949219,160.48965454101562,267.10589599609375,125.36524963378906,-502.0824890136719
313142.6075729066,94.17369079589844,-256.5003967285156,-214.39205932617188,-340.8534240722656,158.81199645996094,265.4262390136719,123.82247924804688,-503.6092834472656
313142.6115729066,94.57486724853516,-255.89385986328125,-213.59019470214844,-340.0265808105469,159.4125213623047,266.1241760253906,124.28761291503906,-503.0012512207031
313142.6155729066,95.98674011230469,-253.9923858642578,-211.70420837402344,-338.06365966796875,161.38694763183594,268.0366516113281,125.92130279541016,-501.2037048339844
313142.6195729066,96.20856475830078,-253.76756286621094,-211.5453338623047,-337.9387512207031,161.87704467773438,268.46881103515625,126.2385482788086,-500.99737548828125
313142.6235729066,95.35075378417969,-254.8367156982422,-212.84078979492188,-339.2357177734375,160.8029022216797,267.45013427734375,125.15791320800781,-502.2168884277344
313142.6275729066,94.20516967773438,-256.50787353515625,-214.4564971923828,-340.9018859863281,159.0782928466797,265.7714538574219,123.77552032470703,-503.83209228515625
313142.6315729066,94.76721954345703,-255.60409545898438,-213.456298828125,-339.8777160644531,159.91311645507812,266.71270751953125,124.40801239013672,-502.98577880859375
313142.6355729066,96.27800750732422,-253.563232421875,-211.3569793701172,-337.7763977050781,161.8745574951172,268.4408264160156,126.24854278564453,-500.9079284667969
313142.6395729066,96.7821044921875,-253.35589599609375,-211.11618041992188,-337.5180969238281,161.95948791503906,268.39935302734375,126.77761840820312,-500.52923583984375
313142.64357290656,95.90780639648438,-254.90415954589844,-212.5745086669922,-338.9834289550781,160.49964904785156,267.1348876953125,125.72845458984375,-501.9595947265625
313142.6475729066,94.38751983642578,-256.6922302246094,-214.36807250976562,-340.80596923828125,158.9718780517578,265.77996826171875,123.95537567138672,-503.8356018066406
313142.6515729066,95.2528305053711,-255.19192504882812,-213.025146484375,-339.4550476074219,160.45118713378906,267.1773376464844,124.81018829345703,-502.6510314941406
313142.6555729066,96.73314666748047,-253.23849487304688,-210.98228454589844,-337.376220703125,162.3761444091797,268.98040771484375,126.603759765625,-500.66961669921875
313142.65957290656,97.16779327392578,-252.9781951904297,-210.77345275878906,-337.1539001464844,162.65542602539062,269.2516784667969,127.08087921142578,-500.4068298339844
313142.6635729066,96.1246337890625,-254.5404510498047,-212.3646697998047,-338.8110656738281,161.10067749023438,267.7648620605469,125.87134552001953,-501.9271240234375
313142.6675729066,94.71025848388672,-256.4714050292969,-214.19720458984375,-340.6920471191406,159.33908081054688,266.07623291015625,124.18269348144531,-503.840576171875
313142.6715729066,94.87763214111328,-256.0077819824219,-213.62466430664062,-340.08905029296875,159.8956298828125,266.65374755859375,124.42449951171875,-503.4403991699219
313142.67557290656,96.40690612792969,-253.8629913330078,-211.4913787841797,-337.9462585449219,161.96548461914062,268.66064453125,126.3289794921875,-501.361572265625
313142.6795729066,96.8465576171875,-253.1465606689453,-211.1016845703125,-337.6235046386719,162.626953125,269.22021484375,126.81958770751953,-500.8479919433594
313142.6835729066,95.92179107666016,-254.5799102783203,-212.57301330566406,-339.0648498535156,161.20509338378906,267.85980224609375,125.59406280517578,-502.2178955078125
313142.6875729066,94.6817855834961,-256.2121276855469,-214.1857147216797,-340.6595764160156,159.6118621826172,266.3015441894531,124.03231048583984,-503.8200988769531
313142.6915729066,95.45915985107422,-255.04653930664062,-212.93072509765625,-339.4250793457031,160.69448852539062,267.34771728515625,124.85515594482422,-502.7124938964844
313142.6955729066,96.77210998535156,-253.2809600830078,-211.0712127685547,-337.6180114746094,162.26324462890625,268.7191162109375,126.52182006835938,-500.8589782714844
313142.6995729066,96.69617462158203,-253.71661376953125,-211.47189331054688,-338.01519775390625,161.98046875,268.4503173828125,126.48834991455078,-501.2201843261719
313142.7035729066,96.03919982910156,-255.2263946533203,-212.9552001953125,-339.6513977050781,160.8653564453125,267.3182373046875,125.65301513671875,-502.891357421875
313142.7075729066,95.0729751586914,-256.3020324707031,-214.08380126953125,-340.8024597167969,159.90162658691406,266.61529541015625,124.44847869873047,-504.00946044921875
313142.7115729066,95.33126831054688,-255.28036499023438,-213.09909057617188,-339.6838684082031,160.70599365234375,267.58251953125,124.75123596191406,-503.01324462890625
313142.7155729066,96.52181243896484,-253.61769104003906,-211.43692016601562,-338.109130859375,162.38914489746094,269.1337890625,126.30699157714844,-501.4959716796875
313142.7195729066,97.272216796875,-253.5437469482422,-211.3245086669922,-338.1426086425781,163.0421142578125,269.8092346191406,127.16730499267578,-501.6568298339844
313142.72357290663,96.41539764404297,-255.15745544433594,-212.85028076171875,-339.6928405761719,161.76564025878906,268.6771545410156,126.16710662841797,-503.19561767578125
313142.7275729066,95.0804672241211,-256.5743103027344,-214.39405822753906,-341.36651611328125,160.2163848876953,267.1908264160156,124.7277603149414,-504.6764221191406
313142.7315729066,95.82237243652344,-255.66854858398438,-213.3663787841797,-340.285888671875,161.0507049560547,268.0186767578125,125.39672088623047,-503.8675537109375
313142.7355729066,97.13032531738281,-253.77305603027344,-211.48138427734375,-338.346923828125,162.6894073486328,269.4555358886719,126.9539794921875,-501.89215087890625
313142.73957290663,97.1278305053711,-253.85800170898438,-211.5863037109375,-338.3629150390625,162.32069396972656,268.993896484375,126.97346496582031,-501.7342834472656
313142.7435729066,96.30748748779297,-255.1044921875,-212.84678649902344,-339.63140869140625,161.15562438964844,267.7923583984375,125.9852523803711,-502.84039306640625
313142.7475729066,94.7822036743164,-256.75018310546875,-214.51145935058594,-341.33905029296875,159.5723876953125,266.28607177734375,124.23715209960938,-504.4176330566406
313142.7515729066,95.38172149658203,-255.67604064941406,-213.44981384277344,-340.2089538574219,160.4307098388672,267.2497863769531,124.87113952636719,-503.4968566894531
313142.75557290664,96.64022064208984,-253.93344116210938,-211.62876892089844,-338.41937255859375,162.15682983398438,268.7096252441406,126.4843521118164,-501.7267761230469
313142.7595729066,96.64221954345703,-253.8040313720703,-211.6852264404297,-338.5777587890625,162.05441284179688,268.2230224609375,126.60675811767578,-501.56939697265625
313142.7635729066,95.99623107910156,-254.9071502685547,-212.787841796875,-339.5379638671875,160.83787536621094,267.28125,125.71096801757812,-502.4876708984375
313142.7675729066,94.82666778564453,-256.41644287109375,-214.19021606445312,-340.78948974609375,159.663818359375,266.70721435546875,124.23564910888672,-503.9250183105469
313142.7715729066,95.54309844970703,-255.24038696289062,-213.11407470703125,-339.7308349609375,160.85287475585938,267.7638854980469,124.93109893798828,-503.08819580078125
313142.7755729066,96.97145080566406,-253.31492614746094,-211.2705535888672,-337.8438415527344,162.61245727539062,269.3536071777344,126.65921020507812,-501.3440856933594
313142.7795729066,97.44407653808594,-253.3079376220703,-211.19210815429688,-337.83685302734375,162.8212890625,269.4690246582031,127.27072143554688,-501.3335876464844
313142.7835729066,96.3089828491211,-255.01907348632812,-212.9442138671875,-339.6129150390625,161.54132080078125,268.3484191894531,125.90381622314453,-503.16162109375
313142.78757290664,94.63381958007812,-257.2213134765625,-215.01754760742188,-341.7137451171875,159.31410217285156,266.23309326171875,123.92190551757812,-505.1865234375
313142.79157290666,94.97754669189453,-256.4678955078125,-214.16073608398438,-340.8394470214844,159.77423095703125,266.5948181152344,124.32957458496094,-504.4061279296875
313142.7955729066,96.75312805175781,-253.9529266357422,-211.6962127685547,-338.314453125,162.24375915527344,268.9619140625,126.4154052734375,-501.98907470703125
313142.79957290663,97.21575927734375,-253.6891326904297,-211.40045166015625,-337.980712890625,162.65342712402344,269.46502685546875,126.92400360107422,-501.663330078125
313142.80357290665,96.13262176513672,-255.1549530029297,-212.95071411132812,-339.55047607421875,161.322998046875,268.23199462890625,125.63652801513672,-503.11767578125
313142.80757290666,94.8811264038086,-256.5968017578125,-214.41053771972656,-341.13519287109375,159.85116577148438,266.7301940917969,124.2171630859375,-504.44610595703125
313142.8115729066,95.12242889404297,-256.1026916503906,-213.78103637695312,-340.523193359375,160.2758331298828,267.1783447265625,124.58287048339844,-503.969482421875
313142.81557290663,96.94547271728516,-253.92843627929688,-211.49087524414062,-338.1510925292969,162.3181915283203,269.0578308105469,126.68968963623047,-501.6953125
313142.81957290665,97.15131378173828,-253.60020446777344,-211.30003356933594,-337.89678955078125,162.50254821777344,269.1917419433594,126.89602661132812,-501.31610107421875
313142.82357290667,95.85134887695312,-254.99658203125,-212.82681274414062,-339.3870849609375,160.7984161376953,267.49908447265625,125.44568634033203,-502.56561279296875
313142.8275729066,94.60484313964844,-256.4334411621094,-214.3635711669922,-341.0627746582031,159.0947723388672,265.72900390625,123.99384307861328,-503.9864807128906
313142.83157290664,95.23583984375,-255.64157104492188,-213.45030212402344,-340.2144470214844,159.5429229736328,265.966796875,124.70977020263672,-503.16162109375
313142.83557290665,96.86553955078125,-253.5902099609375,-211.36447143554688,-338.0276794433594,161.89553833007812,268.4023742675781,126.51683044433594,-501.2951354980469
313142.83957290667,97.56348419189453,-253.00967407226562,-210.8988494873047,-337.4486389160156,163.25045776367188,270.0625305175781,127.1093521118164,-501.0498352050781
313142.8435729066,96.66819763183594,-254.43502807617188,-212.3621826171875,-339.0273742675781,161.85107421875,268.54425048828125,126.04720306396484,-502.4617004394531
313142.84757290664,95.10594940185547,-256.4884033203125,-214.31161499023438,-341.040283203125,159.88414001464844,266.6507568359375,124.2646255493164,-504.4416198730469
313142.85157290666,95.95027160644531,-255.38526916503906,-213.13406372070312,-339.8652038574219,160.9427947998047,267.7428894042969,125.22386169433594,-503.41943359375
313142.8555729067,97.28170776367188,-253.67913818359375,-211.34698486328125,-338.11163330078125,162.76333618164062,269.4530334472656,126.92200469970703,-501.8047180175781
313142.85957290663,97.29669189453125,-253.76907348632812,-211.47039794921875,-338.30145263671875,162.64044189453125,269.0863037109375,127.04540252685547,-501.7762451171875
313142.86357290664,96.51232147216797,-255.11898803710938,-212.78334045410156,-339.4660339355469,161.22756958007812,267.808349609375,125.93229675292969,-502.9383239746094
313142.86757290666,95.31178283691406,-256.37847900390625,-214.2296905517578,-340.80645751953125,159.75074768066406,266.5743408203125,124.38253021240234,-504.3661804199219
313142.8715729066,95.76441955566406,-255.44422912597656,-213.25596618652344,-339.9406433105469,160.56959533691406,267.1983337402344,125.01902770996094,-503.42193603515625
313142.87557290663,97.51451873779297,-253.31492614746094,-211.0657196044922,-337.6744689941406,162.85726928710938,269.4770202636719,126.9764633178711,-501.39453125
313142.87957290665,97.99713134765625,-253.0546417236328,-210.87486267089844,-337.4266662597656,163.20199584960938,269.84869384765625,127.36614990234375,-501.19671630859375
313142.88357290666,96.74263763427734,-254.73829650878906,-212.59149169921875,-339.2182312011719,161.48985290527344,268.2439880371094,126.00273895263672,-502.8254089355469
313142.8875729066,94.95356750488281,-257.0394592285156,-214.792236328125,-341.5298767089844,159.35256958007812,266.2750549316406,124.02481842041016,-505.1375427246094
313142.89157290664,95.82637023925781,-255.8498992919922,-213.585205078125,-340.4277648925781,160.4701690673828,267.3232421875,125.04850006103516,-504.0653991699219
313142.8955729066,97.62593078613281,-253.4952850341797,-211.23158264160156,-337.9822082519531,162.79782104492188,269.661865234375,127.1328353881836,-501.7557678222656
313142.8995729066,97.72834777832031,-253.53924560546875,-211.23008728027344,-337.8868103027344,162.6199493408203,269.3865661621094,127.30469512939453,-501.5244445800781
313142.9035729066,96.52181243896484,-254.96310424804688,-212.78384399414062,-339.5090026855469,161.107666015625,267.80035400390625,125.90930938720703,-502.8014221191406
313142.90757290664,95.12043762207031,-256.37548828125,-214.3256072998047,-341.12921142578125,159.69029235839844,266.43695068359375,124.254638671875,-504.2227783203125
313142.9115729066,95.51661682128906,-255.3068389892578,-213.35289001464844,-340.16998291015625,160.612060546875,267.38916015625,124.76622772216797,-503.36297607421875
313142.9155729066,96.64771270751953,-253.54574584960938,-211.61727905273438,-338.51031494140625,162.2657470703125,268.8230285644531,126.29800415039062,-501.68182373046875
313142.9195729066,97.20526885986328,-253.45681762695312,-211.47189331054688,-338.2590026855469,162.4795684814453,269.0468444824219,126.72515869140625,-501.5464172363281
313142.92357290664,96.43438720703125,-254.68482971191406,-212.7913360595703,-339.5354919433594,161.3524627685547,268.0336608886719,125.68498992919922,-502.7939147949219
313142.9275729066,94.94457244873047,-256.4014587402344,-214.46949768066406,-341.2516174316406,159.67031860351562,266.4349365234375,123.98485565185547,-504.3312072753906
313142.9315729066,95.52161407470703,-255.46421813964844,-213.44281005859375,-340.1369934082031,160.46568298339844,267.2178039550781,124.57288360595703,-503.4828796386719
313142.93557290663,96.97145080566406,-253.4643096923828,-211.45240783691406,-337.99920654296875,162.44009399414062,268.9559326171875,126.30599212646484,-501.5514221191406
313142.93957290665,97.49903106689453,-253.21800231933594,-211.22259521484375,-337.73541259765625,162.96267700195312,269.51947021484375,126.8580551147461,-501.3500671386719
313142.9435729066,96.44237518310547,-254.92913818359375,-212.96719360351562,-339.58892822265625,161.45289611816406,268.1310729980469,125.58257293701172,-503.150634765625
313142.9475729066,95.52461242675781,-256.1911315917969,-214.32411193847656,-341.0417785644531,160.12545776367188,266.8995666503906,124.42899322509766,-504.5015563964844
313142.95157290663,95.92279052734375,-255.5481414794922,-213.44281005859375,-340.1554870605469,160.78292846679688,267.6349792480469,125.00203704833984,-503.7736511230469
313142.95557290665,96.81108093261719,-254.34710693359375,-211.9560089111328,-338.5737609863281,162.2087860107422,268.96142578125,126.25303649902344,-502.3687744140625
313142.9595729066,97.1762924194336,-253.51576232910156,-211.57081604003906,-338.2879638671875,162.6993865966797,269.26019287109375,126.79910278320312,-501.76324462890625
313142.9635729066,96.21805572509766,-254.87667846679688,-213.04412841796875,-339.7802734375,161.2510528564453,267.884765625,125.56658935546875,-503.0837097167969
313142.96757290664,94.8736343383789,-257.0834045410156,-215.0025634765625,-341.7102355957031,159.33409118652344,266.235107421875,123.78750610351562,-505.1850280761719
313142.97157290665,95.28580474853516,-256.2391052246094,-214.1327667236328,-340.83795166015625,160.0979766845703,267.0379638671875,124.3310775756836,-504.47808837890625
313142.9755729066,96.95946502685547,-253.78504943847656,-211.67572021484375,-338.3124694824219,162.30970764160156,269.1112976074219,126.36095428466797,-501.8936462402344
313142.9795729066,97.3791275024414,-253.56723022460938,-211.39144897460938,-337.92926025390625,162.51304626464844,269.25018310546875,126.77761840820312,-501.4145202636719
313142.98357290664,96.39091491699219,-254.974609375,-212.97817993164062,-339.6219177246094,161.043212890625,267.7478942871094,125.55159759521484,-502.8708801269531
313142.98757290666,94.95556640625,-256.6952209472656,-214.7352752685547,-341.5098876953125,159.40953063964844,266.2590637207031,123.9089126586914,-504.6859130859375
313142.99157290667,95.375732421875,-255.91835021972656,-213.85548400878906,-340.6460876464844,160.15542602539062,267.02996826171875,124.48245239257812,-503.9490051269531
313142.9955729066,97.02291107177734,-253.73658752441406,-211.64974975585938,-338.3744201660156,162.28172302246094,269.037841796875,126.42889404296875,-501.82470703125
313142.99957290664,97.48054504394531,-253.5017852783203,-211.37147521972656,-337.9981994628906,162.63644409179688,269.360107421875,126.91600799560547,-501.4854736328125
313143.00357290666,96.34495544433594,-254.96461486816406,-212.97119140625,-339.60443115234375,161.06069946289062,267.8018493652344,125.58856964111328,-502.95428466796875
313143.0075729067,94.79069519042969,-256.8226318359375,-214.7977294921875,-341.4834289550781,159.02732849121094,265.8533935546875,123.77102661132812,-504.66741943359375
313143.01157290663,95.47564697265625,-255.77096557617188,-213.68362426757812,-340.3782958984375,159.93409729003906,266.7156982421875,124.4819564819336,-503.624267578125
313143.01557290665,97.3541488647461,-253.3444061279297,-211.19210815429688,-337.8628234863281,162.4061279296875,269.00189208984375,126.71766662597656,-501.1907043457031
313143.0195729066,97.50602722167969,-253.3404083251953,-211.28953552246094,-337.8997802734375,162.29421997070312,268.91046142578125,126.85205841064453,-501.20318603515625
313143.0235729066,96.41190338134766,-254.95761108398438,-212.94920349121094,-339.51898193359375,160.9837646484375,267.84979248046875,125.49764251708984,-502.8498840332031
313143.02757290663,94.95307159423828,-256.8481140136719,-214.71778869628906,-341.320556640625,159.21168518066406,266.1801452636719,123.82647705078125,-504.594482421875
313143.03157290665,95.42719268798828,-255.75497436523438,-213.6911163330078,-340.3143615722656,160.1074676513672,266.9345397949219,124.38452911376953,-503.6102600097656
313143.0355729066,96.99293518066406,-253.30844116210938,-211.43841552734375,-338.1241149902344,162.29672241210938,268.7820739746094,126.30000305175781,-501.3670654296875
313143.0395729066,97.29519653320312,-253.17604064941406,-211.24656677246094,-337.9302673339844,162.4705810546875,268.8804931640625,126.68818664550781,-501.0443115234375
313143.04357290664,96.4113998413086,-254.61888122558594,-212.637451171875,-339.3036804199219,161.09317016601562,267.7184143066406,125.53910827636719,-502.33929443359375
313143.04757290665,94.77571105957031,-256.5763244628906,-214.5534210205078,-341.27008056640625,159.25665283203125,266.0622253417969,123.57867431640625,-504.29522705078125
313143.0515729066,95.22685241699219,-255.6665496826172,-213.62417602539062,-340.3008728027344,160.04202270507812,266.80364990234375,124.1092529296875,-503.5617980957031
313143.0555729066,97.02391052246094,-253.35989379882812,-211.2955322265625,-337.9917297363281,162.35366821289062,268.9314270019531,126.20657348632812,-501.3470764160156
313143.05957290664,97.29369354248047,-253.21900939941406,-211.171630859375,-337.8892822265625,162.70639038085938,269.28515625,126.53081512451172,-501.2396545410156
313143.06357290666,96.39691162109375,-254.85169982910156,-212.72488403320312,-339.5090026855469,161.21607971191406,267.7184143066406,125.37673950195312,-502.804931640625
313143.0675729066,95.2098617553711,-256.40045166015625,-214.34010314941406,-341.23663330078125,159.4180145263672,265.8853759765625,123.91140747070312,-504.28125
313143.0715729066,95.31078338623047,-255.6830291748047,-213.69410705566406,-340.5971374511719,159.83468627929688,266.3160400390625,124.20967102050781,-503.67523193359375
313143.07557290664,96.85005187988281,-253.7810516357422,-211.61927795410156,-338.410888671875,162.0324249267578,268.62518310546875,126.03571319580078,-501.8501892089844
313143.07957290666,97.3101806640625,-253.51576232910156,-211.40194702148438,-337.9956970214844,162.47207641601562,269.23919677734375,126.3894271850586,-501.6598205566406
313143.0835729066,96.53080749511719,-254.73779296875,-212.7578582763672,-339.3796081542969,161.322998046875,268.1445617675781,125.32078552246094,-502.9098205566406
313143.08757290663,94.9135971069336,-256.7402038574219,-214.71530151367188,-341.4034729003906,159.45648193359375,266.4848937988281,123.43379211425781,-504.8348083496094
313143.09157290665,95.10244750976562,-256.13568115234375,-214.05831909179688,-340.7080383300781,159.92111206054688,266.9395446777344,123.74254608154297,-504.2023010253906
313143.0955729066,96.6841812133789,-253.8465118408203,-211.7836456298828,-338.39239501953125,162.044921875,268.8475036621094,125.65351867675781,-501.9181213378906
313143.0995729066,97.1053466796875,-253.43533325195312,-211.47488403320312,-338.1006164550781,162.3521728515625,269.0488586425781,126.07268524169922,-501.54693603515625
313143.10357290664,96.11463928222656,-255.04054260253906,-213.0766143798828,-339.73980712890625,160.88284301757812,267.6909484863281,124.89412689208984,-503.0632019042969
313143.10757290665,94.48294067382812,-256.8940734863281,-214.9411163330078,-341.67626953125,159.1012725830078,266.0267639160156,123.04060363769531,-504.8942565917969
313143.1115729066,94.7012710571289,-256.0997009277344,-214.134765625,-340.8619079589844,159.74874877929688,266.6302795410156,123.39432525634766,-504.1158752441406
313143.1155729066,96.38142395019531,-254.0623321533203,-212.0249481201172,-338.70166015625,161.92201232910156,268.6476745605469,125.30779266357422,-502.1764221191406
313143.11957290664,96.73814392089844,-253.71810913085938,-211.83160400390625,-338.57073974609375,162.32818603515625,268.8655090332031,125.66700744628906,-501.9930725097656
313143.12357290665,95.67498779296875,-255.37777709960938,-213.4538116455078,-340.1739807128906,160.6730194091797,267.3471984863281,124.32108306884766,-503.54681396484375
313143.1275729066,94.49742889404297,-256.8760681152344,-215.0365447998047,-341.7397155761719,159.08978271484375,265.868896484375,122.83827209472656,-505.0740966796875
313143.1315729066,94.95906066894531,-256.1836242675781,-214.29212951660156,-340.9878234863281,159.7952117919922,266.623779296875,123.33386993408203,-504.5365295410156
313143.13557290664,96.49333953857422,-254.0533447265625,-212.16233825683594,-338.80755615234375,161.93850708007812,268.692138671875,125.17939758300781,-502.4811706542969
313143.13957290666,96.81208038330078,-253.79405212402344,-211.92852783203125,-338.5118103027344,162.13833618164062,268.72509765625,125.52961730957031,-502.1114807128906
313143.1435729066,95.75542449951172,-255.2603759765625,-213.4812774658203,-340.0910339355469,160.6530303955078,267.32421875,124.26612854003906,-503.5093688964844
313143.14757290663,94.06378173828125,-257.5010681152344,-215.5701141357422,-342.16937255859375,158.31289672851562,265.17193603515625,122.33417510986328,-505.5372314453125
313143.15157290665,94.52490997314453,-256.7152099609375,-214.67283630371094,-341.3225402832031,158.87045288085938,265.6370849609375,122.9951400756836,-504.72088623046875
313143.15557290666,96.37742614746094,-253.9099578857422,-212.1038818359375,-338.756103515625,161.6487274169922,268.31744384765625,125.19688415527344,-502.169921875
313143.1595729066,96.81158447265625,-253.72010803222656,-211.84359741210938,-338.3554382324219,162.0644073486328,268.8764953613281,125.61105346679688,-501.8392028808594
313143.16357290663,95.71695709228516,-255.56863403320312,-213.60818481445312,-340.1080322265625,160.2423553466797,267.1098937988281,124.24964141845703,-503.54132080078125
313143.16757290665,94.25262451171875,-257.2647705078125,-215.3612823486328,-341.9545593261719,158.327392578125,265.18743896484375,122.58496856689453,-505.21148681640625
313143.17157290666,94.858642578125,-256.1106872558594,-214.17222595214844,-340.7335205078125,159.38055419921875,266.27008056640625,123.33537292480469,-504.0484313964844
313143.1755729066,96.61823272705078,-253.6191864013672,-211.79412841796875,-338.36492919921875,161.78163146972656,268.49078369140625,125.42420196533203,-501.7442626953125
313143.17957290664,97.01941680908203,-253.27096557617188,-211.52035522460938,-338.1630859375,162.22726440429688,268.8934631347656,125.9023208618164,-501.3570861816406
313143.18357290665,96.29898834228516,-255.0095672607422,-213.0766143798828,-339.6683654785156,160.68699645996094,267.5270690917969,124.81369018554688,-502.9258117675781
313143.18757290667,94.7497329711914,-257.1293640136719,-215.0959930419922,-341.79815673828125,158.63714599609375,265.5471496582031,123.02661895751953,-505.0091552734375
313143.1915729067,95.23434448242188,-256.0592346191406,-214.03533935546875,-340.8084716796875,159.53143310546875,266.3420104980469,123.72655487060547,-504.044921875
313143.19557290664,96.79959106445312,-253.87698364257812,-211.775146484375,-338.5532531738281,161.68270874023438,268.3419189453125,125.70247650146484,-501.8182067871094
313143.19957290665,97.10834503173828,-253.681640625,-211.5887908935547,-338.37591552734375,161.85606384277344,268.3953552246094,126.10415649414062,-501.49847412109375
313143.20357290667,96.37742614746094,-254.79824829101562,-212.86427307128906,-339.5569763183594,160.67001342773438,267.45562744140625,125.02452087402344,-502.655029296875
313143.2075729067,94.77520751953125,-256.5813293457031,-214.71929931640625,-341.36602783203125,158.6256561279297,265.53717041015625,123.11205291748047,-504.3666687011719
313143.21157290664,95.07247161865234,-255.87937927246094,-213.9484100341797,-340.62811279296875,159.3315887451172,266.2840576171875,123.5856704711914,-503.73016357421875
313143.21557290666,96.98194885253906,-253.2744598388672,-211.38795471191406,-338.0651550292969,162.23326110839844,269.07781982421875,125.84736633300781,-501.2986145019531
313143.2195729067,97.66590118408203,-252.7313995361328,-210.8733673095703,-337.5595703125,162.7618408203125,269.4630126953125,126.56029510498047,-500.6756286621094
313143.2235729067,96.55728149414062,-254.48199462890625,-212.56101989746094,-339.2891845703125,160.91531372070312,267.6949157714844,125.21437072753906,-502.2073974609375
313143.22757290665,94.96805572509766,-256.62127685546875,-214.55093383789062,-341.298583984375,158.86746215820312,265.74298095703125,123.33537292480469,-504.206298828125
313143.23157290666,95.15290832519531,-255.72000122070312,-213.72158813476562,-340.4407653808594,159.65582275390625,266.6033020019531,123.64812469482422,-503.46539306640625
313143.2355729067,96.79609680175781,-253.41635131835938,-211.4698944091797,-338.1705627441406,161.80909729003906,268.61669921875,125.63652801513672,-501.26214599609375
313143.2395729067,97.35914611816406,-253.218505859375,-211.1641387939453,-337.7709045410156,162.1618194580078,268.9783935546875,126.1781005859375,-500.8804626464844
313143.24357290665,96.39241790771484,-254.252685546875,-212.49057006835938,-339.1432800292969,160.93080139160156,267.7588806152344,125.00952911376953,-501.9496154785156
313143.24757290666,94.91010284423828,-256.18463134765625,-214.34259033203125,-341.04278564453125,159.00234985351562,265.89288330078125,123.30339813232422,-503.7816467285156
313143.2515729067,95.3822250366211,-255.54115295410156,-213.53024291992188,-340.2499084472656,159.57838439941406,266.300048828125,123.93539428710938,-503.1091613769531
313143.2555729067,96.73714447021484,-253.42733764648438,-211.46139526367188,-338.1595764160156,161.5623016357422,268.2414855957031,125.65801239013672,-501.0108642578125
313143.25957290665,97.44757080078125,-252.5805206298828,-210.87486267089844,-337.548583984375,162.2142791748047,268.853515625,126.39442443847656,-500.25445556640625
313143.26357290667,96.3339614868164,-254.2241973876953,-212.52305603027344,-339.2242431640625,160.7394561767578,267.4091491699219,125.08647155761719,-501.7942199707031
313143.2675729067,94.77620697021484,-256.50836181640625,-214.6143798828125,-341.3150634765625,158.8909454345703,265.7469787597656,123.1834945678711,-504.0614013671875
313143.27157290664,95.36923217773438,-255.6250762939453,-213.68511962890625,-340.34881591796875,159.8931427001953,266.87109375,123.80249786376953,-503.44091796875
313143.27557290666,97.08836364746094,-253.2904510498047,-211.42442321777344,-338.10711669921875,162.23826599121094,269.1028137207031,125.86984252929688,-501.3660583496094
313143.2795729067,97.19527435302734,-253.2794647216797,-211.42742919921875,-338.130615234375,162.293212890625,269.0793151855469,126.0811767578125,-501.2546691894531
313143.2835729067,96.14611053466797,-254.6873321533203,-212.981689453125,-339.7518005371094,160.81289672851562,267.657958984375,124.8591537475586,-502.6485290527344
313143.28757290664,94.84864807128906,-256.7491760253906,-214.95260620117188,-341.7202453613281,158.84347534179688,265.8304138183594,123.17250061035156,-504.68841552734375
313143.29157290666,95.354248046875,-256.0302429199219,-214.06732177734375,-340.8099670410156,159.50294494628906,266.42144775390625,123.76303100585938,-503.9759826660156
313143.2955729067,96.83756256103516,-253.9114532470703,-211.94851684570312,-338.6471862792969,161.54481506347656,268.22100830078125,125.61505126953125,-501.88214111328125
313143.2995729067,97.36763763427734,-253.48928833007812,-211.53134155273438,-338.1361083984375,162.02194213867188,268.68212890625,126.18109893798828,-501.3560791015625
313143.30357290665,96.33746337890625,-254.98109436035156,-213.07261657714844,-339.7088317871094,160.69200134277344,267.5385437011719,124.88862609863281,-502.8014221191406
313143.30757290666,95.14491271972656,-256.688232421875,-214.8052215576172,-341.5458679199219,159.1002655029297,266.0357666015625,123.42030334472656,-504.62347412109375
313143.3115729067,95.72295379638672,-255.8638916015625,-213.84799194335938,-340.56317138671875,159.9456024169922,267.0379638671875,124.1102523803711,-503.8665771484375
313143.3155729067,97.31668090820312,-253.681640625,-211.5628204345703,-338.2665100097656,161.9534912109375,268.8924865722656,126.12114715576172,-501.5494079589844
313143.31957290665,97.65840148925781,-252.9347381591797,-211.15963745117188,-337.9647216796875,162.3846435546875,269.2676696777344,126.6027603149414,-500.8424987792969
313143.32357290667,96.6537094116211,-254.45602416992188,-212.6104736328125,-339.26568603515625,160.69349670410156,267.75537109375,125.30030059814453,-502.04901123046875
313143.3275729067,95.22534942626953,-256.37298583984375,-214.39854431152344,-340.9553527832031,158.56370544433594,265.66705322265625,123.47376251220703,-503.677734375
313143.3315729067,95.50812530517578,-255.56312561035156,-213.55772399902344,-340.2109375,159.38304138183594,266.4564208984375,123.97486114501953,-502.9472961425781
313143.33557290665,97.24922943115234,-253.2849578857422,-211.25306701660156,-337.87030029296875,161.73365783691406,268.82501220703125,126.06019592285156,-500.80902099609375
313143.33957290667,97.703369140625,-253.0861053466797,-211.03823852539062,-337.6155090332031,161.97946166992188,269.0008850097656,126.49284362792969,-500.4977722167969
313143.3435729066,96.69068145751953,-254.4220428466797,-212.51205444335938,-339.19476318359375,160.59857177734375,267.51556396484375,125.2578353881836,-501.7972106933594
313143.34757290664,95.2992935180664,-255.9483184814453,-214.15225219726562,-340.93035888671875,159.07728576660156,265.9713134765625,123.60665130615234,-503.34698486328125
313143.35157290666,95.52161407470703,-255.5101776123047,-213.51625061035156,-340.27490234375,159.56790161132812,266.4459228515625,124.01283264160156,-502.92730712890625
313143.3555729067,97.23973846435547,-253.56573486328125,-211.3689727783203,-338.0076904296875,161.6697235107422,268.4593200683594,126.05220031738281,-500.90594482421875
313143.35957290663,97.83326721191406,-252.84629821777344,-210.92233276367188,-337.57354736328125,162.25674438476562,268.91845703125,126.68069458007812,-500.3204040527344
313143.36357290664,96.66070556640625,-254.403564453125,-212.6209716796875,-339.3366394042969,160.7004852294922,267.4326477050781,125.22435760498047,-501.9720764160156
313143.36757290666,95.01551818847656,-256.4069519042969,-214.58689880371094,-341.3909912109375,158.7080841064453,265.556640625,123.29090881347656,-503.9165344238281
313143.3715729067,95.58905792236328,-255.50418090820312,-213.56121826171875,-340.25140380859375,159.48497009277344,266.4199523925781,123.95637512207031,-502.9233093261719
313143.37557290663,97.41659545898438,-253.0621337890625,-211.0617218017578,-337.7174377441406,161.6487274169922,268.36090087890625,126.14562225341797,-500.3414001464844
313143.37957290665,97.6763916015625,-252.66644287109375,-210.75746154785156,-337.4236755371094,161.92251586914062,268.5217590332031,126.51183319091797,-499.8687744140625
313143.38357290666,96.82157135009766,-254.26966857910156,-212.29473876953125,-338.8490295410156,160.30531311035156,266.989501953125,125.3332748413086,-501.2921142578125
313143.3875729067,95.33426666259766,-256.343505859375,-214.25765991210938,-340.7655029296875,158.28941345214844,265.1044921875,123.49274444580078,-503.22308349609375
313143.39157290664,95.82686614990234,-255.36329650878906,-213.2639617919922,-339.73333740234375,159.28163146972656,266.0292663574219,124.05879211425781,-502.3672790527344
313143.39557290665,97.58146667480469,-253.16554260253906,-210.92083740234375,-337.29376220703125,161.83457946777344,268.6796569824219,126.11164855957031,-500.30841064453125
313143.39957290667,98.09355926513672,-252.4406280517578,-210.4422149658203,-336.924072265625,162.6399383544922,269.5584411621094,126.77312469482422,-499.79681396484375
313143.4035729067,97.19127655029297,-254.0788116455078,-212.06642150878906,-338.6746826171875,160.95428466796875,267.84930419921875,125.67999267578125,-501.34259033203125
313143.40757290664,95.62403106689453,-256.25958251953125,-214.06082153320312,-340.6945495605469,158.85296630859375,265.8743896484375,123.85295867919922,-503.2705383300781
313143.41157290665,96.09515380859375,-255.0540313720703,-212.95021057128906,-339.6388854980469,159.76124572753906,266.76116943359375,124.50293731689453,-502.20440673828125
313143.41557290667,97.62493133544922,-252.79583740234375,-210.67652893066406,-337.39520263671875,161.77862548828125,268.6231994628906,126.4269027709961,-499.874755859375
313143.4195729066,98.11004638671875,-252.40216064453125,-210.35028076171875,-337.0919494628906,162.16232299804688,268.8764953613281,126.9549789428711,-499.4935607910156
313143.42357290664,96.93648529052734,-254.1217803955078,-212.05941772460938,-338.928466796875,160.3282928466797,266.8211364746094,125.6015625,-500.9888610839844
313143.42757290666,95.25932312011719,-256.2855529785156,-214.1047821044922,-340.9528503417969,158.22796630859375,264.9971008300781,123.64262390136719,-502.98126220703125
313143.4315729067,95.79839324951172,-255.2743682861328,-213.08909606933594,-339.7917785644531,159.4504852294922,266.52386474609375,124.12374114990234,-502.2228698730469
313143.43557290663,97.76332092285156,-252.67593383789062,-210.49717712402344,-337.150390625,162.06689453125,269.0578308105469,126.4109115600586,-499.723876953125
313143.43957290665,98.18548583984375,-252.64895629882812,-210.4097442626953,-337.0959167480469,162.3466796875,269.21771240234375,126.85305786132812,-499.66943359375
313143.4435729066,97.11534118652344,-254.2506866455078,-212.16233825683594,-338.91748046875,160.68899536132812,267.5575256347656,125.54959869384766,-501.3920593261719
313143.4475729066,95.44217681884766,-256.3145446777344,-214.26715087890625,-341.09423828125,158.4927520751953,265.30584716796875,123.61564636230469,-503.40093994140625
313143.45157290663,95.94927215576172,-255.42724609375,-213.304931640625,-340.0160827636719,159.48545837402344,266.5488586425781,124.23365020751953,-502.5740966796875
313143.45557290665,97.6289291381836,-252.85330200195312,-210.91683959960938,-337.5540771484375,161.92601013183594,268.81854248046875,126.21107482910156,-500.2504577636719
313143.4595729066,98.0975570678711,-252.5215606689453,-210.56910705566406,-337.0519714355469,162.29672241210938,269.1327819824219,126.64871978759766,-499.8108215332031
313143.4635729066,97.056884765625,-254.37808227539062,-212.32470703125,-338.76708984375,160.50814819335938,267.45611572265625,125.26432800292969,-501.4749755859375
313143.46757290664,95.25032806396484,-256.6817321777344,-214.52294921875,-341.0887451171875,158.36386108398438,265.4097595214844,123.2029800415039,-503.69769287109375
313143.47157290665,95.64051818847656,-255.56512451171875,-213.5777130126953,-340.2339172363281,159.36605834960938,266.4419250488281,123.80149841308594,-502.8898620605469
313143.4755729066,97.42609405517578,-253.0531463623047,-211.15664672851562,-337.7663879394531,161.60577392578125,268.60919189453125,125.95927429199219,-500.4462890625
313143.4795729066,98.1999740600586,-252.64996337890625,-210.72947692871094,-337.2812805175781,162.11785888671875,269.0823059082031,126.65522003173828,-499.96319580078125
313143.48357290664,97.21226501464844,-254.16075134277344,-212.24127197265625,-338.81805419921875,160.90682983398438,267.894775390625,125.40771484375,-501.40252685546875
313143.48757290666,95.55608367919922,-256.1236877441406,-214.14276123046875,-340.7834777832031,159.11676025390625,266.149658203125,123.49923706054688,-503.3030090332031
313143.4915729066,95.85784149169922,-255.5816192626953,-213.41134643554688,-340.0016174316406,159.6768035888672,266.8046569824219,123.96836853027344,-502.8643798828125
313143.4955729066,97.62742614746094,-252.91224670410156,-211.0012664794922,-337.6664733886719,161.9784698486328,268.8759765625,126.14362335205078,-500.37237548828125
313143.49957290664,97.9296875,-252.58900451660156,-210.81141662597656,-337.5205993652344,162.22976684570312,269.080810546875,126.52781677246094,-500.03363037109375
313143.50357290666,96.96546173095703,-254.07232666015625,-212.30722045898438,-339.0943298339844,160.75445556640625,267.68994140625,125.35176086425781,-501.4110412597656
313143.5075729066,95.4017105102539,-256.3010559082031,-214.39454650878906,-341.2401123046875,158.8179931640625,265.8194274902344,123.4402847290039,-503.60577392578125
313143.51157290663,95.62952423095703,-255.675537109375,-213.7115936279297,-340.5821533203125,159.29161071777344,266.3100280761719,123.8679428100586,-502.96478271484375
313143.5155729066,97.38362121582031,-253.24098205566406,-211.35049438476562,-338.2240295410156,161.5153350830078,268.3349304199219,126.0157241821289,-500.6226501464844
313143.5195729066,98.10604858398438,-252.7174072265625,-210.7814483642578,-337.6369934082031,162.06689453125,268.7420959472656,126.78761291503906,-500.0266418457031
313143.5235729066,97.16529846191406,-254.17474365234375,-212.2512664794922,-339.08184814453125,160.7069854736328,267.5515441894531,125.54759979248047,-501.4100341796875
313143.52757290663,95.40770721435547,-256.1616516113281,-214.29612731933594,-341.11572265625,158.8319854736328,265.8753967285156,123.48474884033203,-503.3779602050781
313143.5315729066,95.6495132446289,-255.4542236328125,-213.5387420654297,-340.3118591308594,159.38653564453125,266.408447265625,123.84546661376953,-502.7639465332031
313143.5355729066,97.6808853149414,-253.1125946044922,-211.0262451171875,-337.73291015625,161.646240234375,268.56573486328125,126.11964416503906,-500.294921875
313143.5395729066,98.29839324951172,-252.55003356933594,-210.49566650390625,-337.1523742675781,162.36065673828125,269.3645935058594,126.73664855957031,-499.69891357421875
313143.5435729066,96.95246887207031,-254.33860778808594,-212.3821563720703,-339.0668640136719,160.55111694335938,267.5380554199219,125.159912109375,-501.5284423828125
313143.5475729066,95.1808853149414,-256.6033020019531,-214.5064697265625,-341.2281188964844,158.39483642578125,265.5186767578125,123.19298553466797,-503.6407470703125
313143.5515729066,96.07466888427734,-255.04354858398438,-213.11407470703125,-339.8427429199219,159.69180297851562,266.93804931640625,124.20817565917969,-502.1924133300781
313143.5555729066,98.14351654052734,-252.3167266845703,-210.5631103515625,-337.26080322265625,162.21827697753906,269.24169921875,126.52332305908203,-499.71337890625
313143.5595729066,98.43478393554688,-252.3277130126953,-210.4412078857422,-337.1024169921875,162.4041290283203,269.38409423828125,126.87503814697266,-499.5710144042969
313143.5635729066,97.11783599853516,-254.11279296875,-212.21429443359375,-338.8710021972656,160.67701721191406,267.7493896484375,125.34925842285156,-501.2151794433594
313143.5675729066,95.66400146484375,-255.82891845703125,-213.9808807373047,-340.6515808105469,158.9224090576172,266.0747375488281,123.56218719482422,-502.9088439941406
313143.5715729066,96.26551818847656,-255.1314697265625,-213.11557006835938,-339.7538146972656,159.4989471435547,266.6437683105469,124.2386474609375,-502.2328796386719
313143.5755729066,97.76731872558594,-253.0836181640625,-211.020751953125,-337.7718811035156,161.57879638671875,268.56072998046875,126.20307922363281,-500.2524719238281
313143.5795729066,98.15550994873047,-252.79983520507812,-210.76995849609375,-337.5885314941406,162.06939697265625,268.9499206542969,126.72216033935547,-500.0486145019531
313143.5835729066,97.14031982421875,-254.36509704589844,-212.4521026611328,-339.3606262207031,160.5456085205078,267.40264892578125,125.35875701904297,-501.7187805175781
313143.58757290663,95.55059051513672,-256.6652526855469,-214.49147033691406,-341.4104919433594,158.53472900390625,265.5731201171875,123.44078826904297,-503.8031311035156
313143.5915729066,96.05268859863281,-255.6700439453125,-213.4972686767578,-340.3797912597656,159.4964599609375,266.6177978515625,123.99384307861328,-502.9598083496094
313143.5955729066,97.99813079833984,-252.73239135742188,-210.8398895263672,-337.8408508300781,162.1013641357422,268.97589111328125,126.33047485351562,-500.2829284667969
313143.5995729066,98.1764907836914,-252.73988342285156,-210.75845336914062,-337.7359313964844,162.2232666015625,269.0713195800781,126.56878662109375,-500.1530456542969
313143.60357290664,97.19127655029297,-254.23568725585938,-212.29122924804688,-339.1328125,160.71847534179688,267.765869140625,125.34925842285156,-501.6258544921875
313143.6075729066,95.72944641113281,-256.1371765136719,-214.22169494628906,-341.09423828125,158.79551696777344,265.9453430175781,123.60465240478516,-503.3429870605469
313143.6115729066,96.27500915527344,-255.4042510986328,-213.3838653564453,-340.2598876953125,159.35955810546875,266.4494323730469,124.31008911132812,-502.6595458984375
313143.6155729066,97.87873077392578,-253.3608856201172,-211.214599609375,-338.0242004394531,161.5438232421875,268.5862121582031,126.22406005859375,-500.7265930175781
313143.6195729066,98.47425079345703,-253.05213928222656,-210.88735961914062,-337.6694641113281,162.05841064453125,269.2157287597656,126.79710388183594,-500.33837890625
313143.6235729066,97.44158172607422,-254.48500061035156,-212.3751678466797,-339.16778564453125,160.70948791503906,268.00018310546875,125.53311157226562,-501.69830322265625
313143.6275729066,96.0062255859375,-255.84890747070312,-214.0088653564453,-340.8404235839844,159.06179809570312,266.3385009765625,123.82747650146484,-503.2305908203125
313143.6315729066,96.49383544921875,-255.136474609375,-213.16253662109375,-339.920166015625,159.7302703857422,267.0809326171875,124.29010772705078,-502.5201416015625
313143.6355729066,98.16749572753906,-252.91824340820312,-210.92332458496094,-337.7179260253906,161.83358764648438,268.9564208984375,126.30349731445312,-500.3254089355469
