lsl_time,C3,C4,CZ,CP3,CP4,CPZ,FC3,FC4
315887.4069144802,-633.4674072265625,-1199.345458984375,-1058.26171875,-1103.484619140625,-1038.335205078125,-642.9498291015625,-1233.408203125,-1445.1043701171875
315887.4109144802,-632.934326171875,-1199.561279296875,-1058.5054931640625,-1103.678466796875,-1037.5323486328125,-641.5164794921875,-1233.994140625,-1445.0718994140625
315887.41491448024,-642.8389282226562,-1209.98388671875,-1069.4168701171875,-1114.218505859375,-1046.978759765625,-650.2529907226562,-1244.98291015625,-1455.2657470703125
315887.41891448025,-647.9343872070312,-1214.7640380859375,-1074.2794189453125,-1118.958251953125,-1052.20556640625,-655.6571655273438,-1249.603271484375,-1460.1893310546875
315887.4229144802,-642.5911254882812,-1208.8427734375,-1068.1353759765625,-1112.8770751953125,-1047.22705078125,-651.2796630859375,-1243.2298583984375,-1454.4793701171875
315887.4269144802,-633.0862426757812,-1199.07958984375,-1057.9744873046875,-1103.021484375,-1038.0533447265625,-642.5906372070312,-1233.0,-1444.7476806640625
315887.43091448024,-632.825439453125,-1199.490234375,-1058.402099609375,-1103.4190673828125,-1037.46533203125,-641.4265747070312,-1233.7034912109375,-1444.818115234375
315887.43491448025,-642.890380859375,-1209.9423828125,-1069.3533935546875,-1114.0211181640625,-1046.914794921875,-650.195068359375,-1244.8065185546875,-1455.055908203125
315887.4389144802,-647.7239990234375,-1214.46728515625,-1073.961181640625,-1118.530517578125,-1051.8782958984375,-655.3329467773438,-1249.2755126953125,-1459.76220703125
315887.4429144802,-642.6166381835938,-1208.983154296875,-1068.19775390625,-1112.906005859375,-1047.310546875,-651.2377319335938,-1243.357666015625,-1454.5877685546875
315887.44691448024,-633.1786499023438,-1199.410400390625,-1058.2122802734375,-1103.3197021484375,-1038.32763671875,-642.6441040039062,-1233.4066162109375,-1445.17138671875
315887.45091448026,-633.1177368164062,-1199.9788818359375,-1058.81982421875,-1103.95068359375,-1037.886474609375,-641.6898803710938,-1234.3184814453125,-1445.422119140625
315887.4549144802,-643.0492553710938,-1210.233642578125,-1069.5926513671875,-1114.4052734375,-1047.1571044921875,-650.3914184570312,-1245.1688232421875,-1455.421630859375
315887.45891448023,-647.6546020507812,-1214.347412109375,-1073.8272705078125,-1118.4940185546875,-1051.741943359375,-655.2774658203125,-1249.1666259765625,-1459.63330078125
315887.46291448025,-642.2084350585938,-1208.2132568359375,-1067.5223388671875,-1112.419921875,-1046.6634521484375,-650.9209594726562,-1242.560791015625,-1453.7030029296875
315887.46691448026,-632.8414306640625,-1198.6044921875,-1057.5252685546875,-1102.8570556640625,-1037.691162109375,-642.44873046875,-1232.5338134765625,-1444.18115234375
315887.4709144802,-632.6276245117188,-1199.0955810546875,-1058.044921875,-1103.359619140625,-1037.1590576171875,-641.3151245117188,-1233.397216796875,-1444.3795166015625
315887.47491448023,-642.8529052734375,-1209.779541015625,-1069.2044677734375,-1114.112548828125,-1046.8209228515625,-650.2890014648438,-1244.6732177734375,-1454.8216552734375
315887.47891448025,-647.3903198242188,-1213.9462890625,-1073.4925537109375,-1118.2667236328125,-1051.4576416015625,-655.195068359375,-1248.7598876953125,-1459.13818359375
315887.48291448026,-642.0790405273438,-1208.053466796875,-1067.408447265625,-1112.3189697265625,-1046.58154296875,-650.9249877929688,-1242.470947265625,-1453.5181884765625
315887.4869144802,-632.7874755859375,-1198.637939453125,-1057.537353515625,-1102.7786865234375,-1037.756103515625,-642.5001831054688,-1232.59033203125,-1444.2086181640625
315887.49091448024,-632.7025146484375,-1199.326904296875,-1058.2471923828125,-1103.4385986328125,-1037.432861328125,-641.488037109375,-1233.623046875,-1444.6068115234375
315887.49491448025,-643.3695068359375,-1210.6573486328125,-1070.040283203125,-1114.8079833984375,-1047.7451171875,-650.91650390625,-1245.5159912109375,-1455.75537109375
315887.49891448027,-648.0018310546875,-1215.05029296875,-1074.5391845703125,-1119.1734619140625,-1052.572265625,-655.8984985351562,-1249.8284912109375,-1460.4041748046875
315887.5029144802,-642.6146240234375,-1209.0626220703125,-1068.37060546875,-1113.1129150390625,-1047.560302734375,-651.4970092773438,-1243.4700927734375,-1454.7216796875
315887.50691448024,-633.1741943359375,-1199.44384765625,-1058.3182373046875,-1103.3411865234375,-1038.49609375,-642.81396484375,-1233.4237060546875,-1445.230224609375
315887.51091448026,-632.556640625,-1199.542724609375,-1058.4180908203125,-1103.333740234375,-1037.5087890625,-641.1582641601562,-1233.8792724609375,-1445.0814208984375
315887.51491448027,-643.0562744140625,-1210.4410400390625,-1069.8125,-1114.35986328125,-1047.390380859375,-650.3494262695312,-1245.3751220703125,-1455.7613525390625
315887.5189144802,-648.0637817382812,-1215.00634765625,-1074.5162353515625,-1118.982177734375,-1052.4638671875,-655.7036743164062,-1249.8565673828125,-1460.466552734375
315887.52291448024,-642.5606689453125,-1208.8343505859375,-1068.1788330078125,-1112.8370361328125,-1047.3394775390625,-651.2587280273438,-1243.27880859375,-1454.495361328125
315887.52691448026,-632.8359375,-1198.92919921875,-1057.8480224609375,-1102.883544921875,-1038.035400390625,-642.4547729492188,-1232.8970947265625,-1444.6427001953125
315887.5309144802,-632.59814453125,-1199.4033203125,-1058.328125,-1103.3646240234375,-1037.474853515625,-641.306640625,-1233.697998046875,-1444.820068359375
315887.53491448023,-643.4159545898438,-1210.58642578125,-1070.036865234375,-1114.800537109375,-1047.6717529296875,-650.8275756835938,-1245.5814208984375,-1455.8062744140625
315887.53891448025,-647.9683227539062,-1214.650146484375,-1074.25390625,-1119.0411376953125,-1052.2215576171875,-655.734130859375,-1249.541748046875,-1460.0260009765625
315887.54291448026,-642.2623901367188,-1208.3392333984375,-1067.7291259765625,-1112.6602783203125,-1046.8992919921875,-651.0673828125,-1242.7557373046875,-1453.9268798828125
315887.5469144802,-632.8973999023438,-1198.9337158203125,-1057.841552734375,-1103.0958251953125,-1038.0294189453125,-642.5831298828125,-1232.84716796875,-1444.623291015625
315887.55091448023,-632.4112548828125,-1199.239013671875,-1058.15185546875,-1103.3712158203125,-1037.2750244140625,-641.1887817382812,-1233.4681396484375,-1444.6512451171875
315887.5549144802,-642.9138793945312,-1210.209228515625,-1069.5797119140625,-1114.5181884765625,-1047.2095947265625,-650.3983764648438,-1245.0523681640625,-1455.3846435546875
315887.5589144802,-647.8209228515625,-1214.7386474609375,-1074.1934814453125,-1119.0960693359375,-1052.150634765625,-655.6411743164062,-1249.5037841796875,-1460.10791015625
315887.5629144802,-642.1015014648438,-1208.17236328125,-1067.519287109375,-1112.557861328125,-1046.6824951171875,-650.9874267578125,-1242.5513916015625,-1453.7235107421875
315887.56691448024,-631.7418212890625,-1197.5533447265625,-1056.4556884765625,-1101.7474365234375,-1036.6455078125,-641.5279541015625,-1231.3773193359375,-1443.1414794921875
315887.5709144802,-631.2182006835938,-1197.7457275390625,-1056.5665283203125,-1101.806884765625,-1035.7767333984375,-640.1126098632812,-1231.77099609375,-1442.922119140625
315887.5749144802,-642.5506591796875,-1210.0118408203125,-1069.23095703125,-1114.1519775390625,-1046.9068603515625,-650.1630859375,-1244.76806640625,-1455.2222900390625
315887.5789144802,-648.0987548828125,-1215.7662353515625,-1074.9688720703125,-1119.8359375,-1052.971923828125,-656.014892578125,-1250.510498046875,-1461.4083251953125
315887.58291448024,-643.1806640625,-1210.39111328125,-1069.3448486328125,-1114.346435546875,-1048.5169677734375,-652.0205688476562,-1244.7081298828125,-1456.35888671875
315887.5869144802,-633.0208129882812,-1200.0733642578125,-1058.5989990234375,-1103.920166015625,-1038.7578125,-642.66357421875,-1233.9287109375,-1446.131103515625
315887.5909144802,-632.611083984375,-1200.5169677734375,-1059.0166015625,-1104.31787109375,-1038.1513671875,-641.3356323242188,-1234.671630859375,-1446.3189697265625
315887.5949144802,-643.8776245117188,-1212.4583740234375,-1071.3577880859375,-1116.3033447265625,-1048.9796142578125,-651.252197265625,-1247.215087890625,-1458.114501953125
315887.59891448024,-649.5650634765625,-1217.8355712890625,-1076.83837890625,-1121.7025146484375,-1054.7635498046875,-657.2139282226562,-1252.52783203125,-1463.7125244140625
315887.60291448026,-644.117919921875,-1211.7294921875,-1070.579833984375,-1115.6148681640625,-1049.6885986328125,-652.8429565429688,-1246.0125732421875,-1457.8302001953125
315887.6069144802,-633.5713500976562,-1200.9356689453125,-1059.436279296875,-1104.7745361328125,-1039.53271484375,-643.147705078125,-1234.8575439453125,-1447.0858154296875
315887.61091448023,-633.0267944335938,-1201.1080322265625,-1059.608154296875,-1104.8824462890625,-1038.6649169921875,-641.6353759765625,-1235.3221435546875,-1446.98681640625
315887.61491448025,-644.354736328125,-1212.8780517578125,-1071.8463134765625,-1116.7808837890625,-1049.40576171875,-651.64990234375,-1247.72021484375,-1458.556640625
315887.61891448026,-649.958251953125,-1218.0654296875,-1077.152587890625,-1121.9713134765625,-1055.063232421875,-657.5621337890625,-1252.8665771484375,-1463.914306640625
315887.6229144802,-644.1593627929688,-1211.7259521484375,-1070.5814208984375,-1115.50390625,-1049.7110595703125,-652.8274536132812,-1246.0540771484375,-1457.8172607421875
315887.62691448024,-633.5428466796875,-1201.0445556640625,-1059.4727783203125,-1104.714599609375,-1039.608154296875,-643.1536865234375,-1234.85546875,-1447.22314453125
315887.63091448025,-633.33203125,-1201.68603515625,-1060.0892333984375,-1105.276611328125,-1039.2109375,-642.0560913085938,-1235.8096923828125,-1447.6143798828125
315887.63491448027,-644.2763061523438,-1213.23583984375,-1072.07470703125,-1116.9248046875,-1049.715087890625,-651.7288208007812,-1247.991455078125,-1459.0052490234375
315887.6389144802,-649.6484985351562,-1218.1129150390625,-1077.11669921875,-1121.9388427734375,-1055.091796875,-657.4707641601562,-1252.806640625,-1464.0087890625
315887.64291448024,-644.0794677734375,-1211.8289794921875,-1070.69873046875,-1115.687255859375,-1049.867431640625,-652.9803466796875,-1246.1094970703125,-1457.93359375
315887.64691448025,-633.300048828125,-1200.901123046875,-1059.3634033203125,-1104.6436767578125,-1039.498291015625,-643.0327758789062,-1234.713623046875,-1447.1397705078125
315887.65091448027,-632.70556640625,-1200.966064453125,-1059.480712890625,-1104.7515869140625,-1038.56298828125,-641.5449829101562,-1235.145751953125,-1446.9979248046875
315887.6549144802,-644.1213989257812,-1212.903564453125,-1071.8828125,-1116.83642578125,-1049.4727783203125,-651.6998291015625,-1247.771728515625,-1458.771484375
315887.65891448024,-649.9087524414062,-1218.3612060546875,-1077.387939453125,-1122.2520751953125,-1055.319580078125,-657.781494140625,-1253.10888671875,-1464.3480224609375
315887.66291448026,-644.2887573242188,-1212.03076171875,-1070.8951416015625,-1115.9061279296875,-1050.037353515625,-653.1531982421875,-1246.3773193359375,-1458.1859130859375
315887.6669144803,-633.385498046875,-1200.9366455078125,-1059.416259765625,-1104.7010498046875,-1039.5771484375,-643.169189453125,-1234.800048828125,-1447.1632080078125
315887.67091448023,-632.6185913085938,-1200.9996337890625,-1059.4866943359375,-1104.6771240234375,-1038.5699462890625,-641.4830322265625,-1235.208251953125,-1447.00732421875
315887.67491448025,-644.3607177734375,-1213.358154296875,-1072.2255859375,-1117.0556640625,-1049.81201171875,-651.8637084960938,-1248.1748046875,-1459.20458984375
315887.67891448026,-650.0341796875,-1218.6500244140625,-1077.6092529296875,-1122.3843994140625,-1055.54638671875,-657.8234252929688,-1253.374755859375,-1464.67578125
315887.6829144803,-644.4830932617188,-1212.4998779296875,-1071.247802734375,-1116.2288818359375,-1050.41455078125,-653.37353515625,-1246.846435546875,-1458.7879638671875
315887.68691448023,-633.4963989257812,-1201.31884765625,-1059.6470947265625,-1104.94140625,-1039.8529052734375,-643.2850952148438,-1235.210693359375,-1447.6953125
315887.69091448025,-632.4102783203125,-1200.814208984375,-1059.200439453125,-1104.51171875,-1038.3555908203125,-641.2807006835938,-1235.035888671875,-1446.8564453125
315887.69491448026,-644.06396484375,-1212.794677734375,-1071.6710205078125,-1116.6624755859375,-1049.36181640625,-651.6304321289062,-1247.645263671875,-1458.545166015625
315887.6989144803,-649.60400390625,-1217.7147216796875,-1076.7923583984375,-1121.739501953125,-1054.869384765625,-657.4946899414062,-1252.5118408203125,-1463.53564453125
315887.70291448024,-643.924072265625,-1211.370849609375,-1070.2890625,-1115.4420166015625,-1049.565185546875,-652.8713989257812,-1245.7657470703125,-1457.4300537109375
315887.70691448025,-632.94482421875,-1200.297607421875,-1058.787841796875,-1104.241455078125,-1039.03857421875,-642.7964477539062,-1234.2015380859375,-1446.46826171875
315887.71091448027,-632.64208984375,-1200.8057861328125,-1059.2679443359375,-1104.7430419921875,-1038.4591064453125,-641.4840087890625,-1235.0504150390625,-1446.7315673828125
315887.7149144803,-644.9737548828125,-1213.66650390625,-1072.560791015625,-1117.7216796875,-1050.2406005859375,-652.44677734375,-1248.486572265625,-1459.37841796875
315887.71891448024,-650.6766967773438,-1218.8272705078125,-1077.906494140625,-1123.00146484375,-1055.93603515625,-658.5238647460938,-1253.5660400390625,-1464.61474609375
315887.72291448025,-644.7074584960938,-1212.126220703125,-1071.06201171875,-1116.289306640625,-1050.3160400390625,-653.6207885742188,-1246.479248046875,-1458.072998046875
315887.72691448027,-633.1866455078125,-1200.4205322265625,-1058.9227294921875,-1104.368896484375,-1039.178466796875,-642.8839111328125,-1234.3094482421875,-1446.436767578125
315887.7309144803,-632.3558349609375,-1200.381103515625,-1058.8487548828125,-1104.2684326171875,-1038.059326171875,-641.1317749023438,-1234.543701171875,-1446.1251220703125
315887.73491448024,-644.4506225585938,-1212.9605712890625,-1071.890869140625,-1116.9603271484375,-1049.584228515625,-651.93115234375,-1247.753173828125,-1458.5406494140625
315887.73891448026,-650.6776733398438,-1218.7574462890625,-1077.8231201171875,-1122.8040771484375,-1055.8941650390625,-658.5488891601562,-1253.4346923828125,-1464.4344482421875
315887.7429144803,-644.9527587890625,-1212.4989013671875,-1071.3397216796875,-1116.415283203125,-1050.6153564453125,-653.9315795898438,-1246.6865234375,-1458.4251708984375
315887.7469144803,-633.149169921875,-1200.488525390625,-1058.981689453125,-1104.3323974609375,-1039.2269287109375,-643.0343017578125,-1234.2960205078125,-1446.543212890625
315887.7509144803,-632.307861328125,-1200.4534912109375,-1058.90625,-1104.2440185546875,-1038.079833984375,-641.1902465820312,-1234.608154296875,-1446.3128662109375
315887.75491448026,-644.2083129882812,-1212.9505615234375,-1071.79736328125,-1116.7694091796875,-1049.4652099609375,-651.736328125,-1247.711181640625,-1458.6590576171875
315887.7589144803,-650.22705078125,-1218.5211181640625,-1077.496826171875,-1122.346923828125,-1055.491943359375,-658.0602416992188,-1253.2327880859375,-1464.385986328125
315887.7629144803,-644.1903686523438,-1211.7969970703125,-1070.6602783203125,-1115.6083984375,-1049.79248046875,-653.05029296875,-1246.19091796875,-1457.9610595703125
315887.7669144803,-633.0857543945312,-1200.4620361328125,-1058.985595703125,-1104.2479248046875,-1039.0645751953125,-642.7774658203125,-1234.539794921875,-1446.821044921875
315887.77091448026,-632.5046997070312,-1200.5833740234375,-1059.1185302734375,-1104.40478515625,-1038.1318359375,-641.1922607421875,-1235.081298828125,-1446.7236328125
315887.7749144803,-644.8013916015625,-1213.3631591796875,-1072.31298828125,-1117.3194580078125,-1049.7884521484375,-652.0236206054688,-1248.613037109375,-1459.343505859375
315887.7789144803,-650.7216186523438,-1218.83984375,-1077.928955078125,-1122.882568359375,-1055.73828125,-658.20166015625,-1254.0911865234375,-1464.990966796875
315887.7829144803,-644.7463989257812,-1212.13671875,-1071.1243896484375,-1116.1754150390625,-1050.123779296875,-653.2910766601562,-1246.9832763671875,-1458.525146484375
315887.78691448027,-633.2305908203125,-1200.423583984375,-1059.0450439453125,-1104.3338623046875,-1039.0511474609375,-642.6890258789062,-1234.8330078125,-1446.9119873046875
315887.7909144803,-632.545166015625,-1200.4395751953125,-1059.046630859375,-1104.3748779296875,-1038.076904296875,-641.0983276367188,-1235.2237548828125,-1446.651123046875
315887.7949144803,-645.0396728515625,-1213.401611328125,-1072.4268798828125,-1117.4598388671875,-1049.973876953125,-652.2493896484375,-1248.850830078125,-1459.4189453125
315887.7989144803,-651.13427734375,-1218.98974609375,-1078.1597900390625,-1123.08837890625,-1056.051025390625,-658.6168212890625,-1254.3763427734375,-1465.1239013671875
315887.80291448033,-645.3309326171875,-1212.33349609375,-1071.397705078125,-1116.504638671875,-1050.5084228515625,-653.9180908203125,-1247.3494873046875,-1458.6190185546875
315887.8069144803,-633.5833129882812,-1200.2176513671875,-1058.95166015625,-1104.35888671875,-1039.072021484375,-643.0517578125,-1234.8394775390625,-1446.5501708984375
315887.8109144803,-632.8748779296875,-1200.30517578125,-1058.99365234375,-1104.351318359375,-1038.0838623046875,-641.3426513671875,-1235.2691650390625,-1446.391845703125
315887.8149144803,-646.0453491210938,-1214.1356201171875,-1073.1907958984375,-1118.1878662109375,-1050.78125,-653.15869140625,-1249.6947021484375,-1460.0709228515625
315887.81891448033,-652.0530395507812,-1219.7021484375,-1078.95263671875,-1123.8812255859375,-1056.8323974609375,-659.4761352539062,-1255.3046875,-1465.84375
315887.8229144803,-645.6956787109375,-1212.5888671875,-1071.7559814453125,-1116.784423828125,-1050.774169921875,-654.140380859375,-1247.8951416015625,-1458.98681640625
315887.8269144803,-633.95751953125,-1200.6019287109375,-1059.414794921875,-1104.6536865234375,-1039.3768310546875,-643.2061157226562,-1235.4530029296875,-1447.0438232421875
315887.8309144803,-633.0872192382812,-1200.5269775390625,-1059.283935546875,-1104.51123046875,-1038.2108154296875,-641.3845825195312,-1235.62890625,-1446.6890869140625
315887.83491448034,-645.366943359375,-1213.3717041015625,-1072.5203857421875,-1117.4423828125,-1049.953857421875,-652.307861328125,-1249.09912109375,-1459.3389892578125
315887.8389144803,-651.5679321289062,-1219.14306640625,-1078.3851318359375,-1123.162841796875,-1056.12890625,-658.6982421875,-1254.8494873046875,-1465.25927734375
315887.8429144803,-645.4808349609375,-1212.3330078125,-1071.42822265625,-1116.3623046875,-1050.3594970703125,-653.6403198242188,-1247.665283203125,-1458.68896484375
315887.8469144803,-634.1683959960938,-1200.6759033203125,-1059.4537353515625,-1104.7650146484375,-1039.404296875,-643.2416381835938,-1235.60888671875,-1447.1182861328125
315887.85091448034,-633.6063232421875,-1200.9141845703125,-1059.672119140625,-1105.0242919921875,-1038.6124267578125,-641.77880859375,-1236.1868896484375,-1447.1572265625
315887.8549144803,-645.7910766601562,-1213.92578125,-1073.02490234375,-1117.989013671875,-1050.4014892578125,-652.5396728515625,-1249.8065185546875,-1460.1129150390625
315887.8589144803,-652.5101928710938,-1220.427001953125,-1079.6246337890625,-1124.4603271484375,-1057.3089599609375,-659.5770263671875,-1256.2279052734375,-1466.81201171875
315887.8629144803,-645.9744262695312,-1213.23779296875,-1072.31396484375,-1117.2611083984375,-1051.2059326171875,-654.1648559570312,-1248.656982421875,-1459.8231201171875
315887.86691448034,-634.3707275390625,-1201.4088134765625,-1060.125732421875,-1105.3900146484375,-1040.0218505859375,-643.4769287109375,-1236.34130859375,-1448.0830078125
315887.8709144803,-633.6917724609375,-1201.6285400390625,-1060.24365234375,-1105.5389404296875,-1039.1865234375,-641.962158203125,-1236.70556640625,-1447.998046875
315887.8749144803,-646.3096313476562,-1214.9444580078125,-1073.9041748046875,-1118.9122314453125,-1051.3363037109375,-653.2261352539062,-1250.5709228515625,-1461.14501953125
315887.87891448033,-653.1227416992188,-1221.513671875,-1080.5714111328125,-1125.4945068359375,-1058.3531494140625,-660.4623413085938,-1257.0118408203125,-1467.900634765625
315887.88291448035,-647.0111083984375,-1214.712158203125,-1073.62744140625,-1118.6474609375,-1052.6302490234375,-655.4393310546875,-1249.76611328125,-1461.2744140625
315887.8869144803,-635.5887451171875,-1202.840087890625,-1061.4766845703125,-1106.807373046875,-1041.4576416015625,-644.873291015625,-1237.5303955078125,-1449.4483642578125
315887.8909144803,-634.0479736328125,-1201.9378662109375,-1060.5714111328125,-1105.9361572265625,-1039.566650390625,-642.4482421875,-1236.914306640625,-1448.1949462890625
315887.89491448033,-646.1842651367188,-1214.6142578125,-1073.635986328125,-1118.69384765625,-1051.1873779296875,-653.298095703125,-1250.11328125,-1460.5770263671875
315887.89891448035,-651.9886474609375,-1219.844970703125,-1079.0526123046875,-1123.959228515625,-1056.916748046875,-659.3737182617188,-1255.251220703125,-1465.8812255859375
315887.90291448036,-646.122802734375,-1213.21337890625,-1072.3184814453125,-1117.3349609375,-1051.376220703125,-654.5795288085938,-1248.1878662109375,-1459.42138671875
315887.9069144803,-634.9957275390625,-1202.0028076171875,-1060.7247314453125,-1106.0560302734375,-1040.795654296875,-644.3947143554688,-1236.525634765625,-1448.3348388671875
315887.91091448034,-634.398193359375,-1202.319580078125,-1060.9696044921875,-1106.333740234375,-1040.02685546875,-642.8554077148438,-1237.1995849609375,-1448.4891357421875
315887.91491448035,-646.6239013671875,-1215.3450927734375,-1074.282470703125,-1119.29296875,-1051.8218994140625,-653.7252197265625,-1250.767822265625,-1461.412353515625
315887.91891448037,-652.9558715820312,-1221.3553466796875,-1080.3890380859375,-1125.2666015625,-1058.2572021484375,-660.3864135742188,-1256.673583984375,-1467.54443359375
315887.9229144803,-646.618896484375,-1214.27197265625,-1073.1798095703125,-1118.1563720703125,-1052.2520751953125,-655.1031494140625,-1249.1680908203125,-1460.6524658203125
315887.92691448034,-634.9087524414062,-1202.2196044921875,-1060.812744140625,-1106.0584716796875,-1040.834716796875,-644.2557983398438,-1236.717529296875,-1448.676025390625
315887.93091448036,-634.0260009765625,-1201.9937744140625,-1060.599853515625,-1105.899169921875,-1039.5797119140625,-642.3922729492188,-1236.8868408203125,-1448.267333984375
315887.9349144803,-646.3256225585938,-1215.02685546875,-1073.9306640625,-1118.8597412109375,-1051.3941650390625,-653.30908203125,-1250.468505859375,-1461.112060546875
315887.9389144803,-652.2169189453125,-1220.489501953125,-1079.5726318359375,-1124.40380859375,-1057.3089599609375,-659.4906005859375,-1255.919189453125,-1466.7506103515625
315887.94291448034,-646.4525756835938,-1213.9482421875,-1072.972412109375,-1117.9549560546875,-1051.90478515625,-654.81982421875,-1249.0107421875,-1460.419677734375
315887.94691448036,-635.2145385742188,-1202.5244140625,-1061.1739501953125,-1106.4346923828125,-1041.1114501953125,-644.4561157226562,-1237.149169921875,-1449.09716796875
315887.9509144803,-633.8790893554688,-1201.9842529296875,-1060.579833984375,-1105.86865234375,-1039.5556640625,-642.1914672851562,-1236.9178466796875,-1448.2998046875
315887.95491448033,-645.9654541015625,-1214.691162109375,-1073.635986328125,-1118.614013671875,-1051.161865234375,-652.9738159179688,-1250.145751953125,-1460.8138427734375
315887.95891448035,-652.0291137695312,-1220.1627197265625,-1079.329345703125,-1124.2344970703125,-1057.170654296875,-659.36572265625,-1255.5419921875,-1466.3564453125
315887.96291448036,-646.5364990234375,-1213.9677734375,-1073.0439453125,-1118.096923828125,-1052.0621337890625,-654.9622192382812,-1248.937255859375,-1460.34375
315887.9669144803,-635.3973999023438,-1202.754150390625,-1061.419677734375,-1106.72998046875,-1041.417724609375,-644.7479248046875,-1237.26611328125,-1449.26953125
315887.97091448033,-634.2537841796875,-1202.439453125,-1061.0135498046875,-1106.3487548828125,-1040.0462646484375,-642.7195434570312,-1237.2265625,-1448.697021484375
315887.97491448035,-645.6116943359375,-1214.1829833984375,-1073.1563720703125,-1118.165283203125,-1050.7576904296875,-652.7984619140625,-1249.5128173828125,-1460.1368408203125
315887.97891448037,-651.3986206054688,-1219.2919921875,-1078.4700927734375,-1123.4061279296875,-1056.4232177734375,-658.9300537109375,-1254.5587158203125,-1465.271240234375
315887.9829144803,-645.2509765625,-1212.386474609375,-1071.4716796875,-1116.5440673828125,-1050.58837890625,-653.8316650390625,-1247.2646484375,-1458.58056640625
315887.98691448034,-634.236328125,-1201.115966796875,-1059.83251953125,-1105.2047119140625,-1039.9058837890625,-643.6497802734375,-1235.5184326171875,-1447.41748046875
315887.99091448035,-633.3724975585938,-1200.8917236328125,-1059.5802001953125,-1104.9923095703125,-1038.6678466796875,-641.8062744140625,-1235.6138916015625,-1446.92138671875
315887.99491448037,-645.3194580078125,-1213.47412109375,-1072.5003662109375,-1117.5977783203125,-1050.1627197265625,-652.4482421875,-1248.7474365234375,-1459.2850341796875
315887.9989144803,-651.1328125,-1218.77587890625,-1077.970458984375,-1123.0379638671875,-1055.9949951171875,-658.6287841796875,-1253.947265625,-1464.622314453125
315888.00291448034,-645.0401611328125,-1211.975341796875,-1071.0589599609375,-1116.2198486328125,-1050.2421875,-653.5608520507812,-1246.739990234375,-1457.9891357421875
315888.00691448036,-634.0414428710938,-1200.6778564453125,-1059.4437255859375,-1104.87451171875,-1039.5692138671875,-643.3340454101562,-1235.0648193359375,-1446.78857421875
315888.0109144803,-633.4699096679688,-1200.8282470703125,-1059.519775390625,-1104.9783935546875,-1038.7213134765625,-641.8702392578125,-1235.4625244140625,-1446.6466064453125
315888.0149144803,-645.7311401367188,-1213.6839599609375,-1072.74560546875,-1117.9315185546875,-1050.50048828125,-652.8284301757812,-1248.904296875,-1459.2840576171875
315888.01891448034,-651.6124267578125,-1219.2425537109375,-1078.4366455078125,-1123.4925537109375,-1056.4156494140625,-658.9290771484375,-1254.4488525390625,-1465.0489501953125
315888.02291448036,-645.5892333984375,-1212.5323486328125,-1071.610107421875,-1116.825439453125,-1050.740234375,-653.95751953125,-1247.3455810546875,-1458.5516357421875
315888.0269144803,-634.8003540039062,-1201.513671875,-1060.213134765625,-1105.7003173828125,-1040.297607421875,-644.0134887695312,-1235.8621826171875,-1447.6243896484375
315888.03091448033,-633.8991088867188,-1201.328857421875,-1060.0357666015625,-1105.61083984375,-1039.14404296875,-642.2628784179688,-1235.985107421875,-1447.19775390625
315888.0349144803,-645.63671875,-1213.7799072265625,-1072.840087890625,-1118.15283203125,-1050.5294189453125,-652.8124389648438,-1248.938232421875,-1459.4569091796875
315888.0389144803,-651.6483764648438,-1219.5137939453125,-1078.69189453125,-1123.9757080078125,-1056.740478515625,-659.3197631835938,-1254.5078125,-1465.312744140625
315888.0429144803,-645.9654541015625,-1213.075927734375,-1072.18212890625,-1117.59033203125,-1051.3507080078125,-654.721923828125,-1247.70068359375,-1459.0921630859375
315888.04691448034,-634.375732421875,-1201.158935546875,-1059.9593505859375,-1105.5518798828125,-1039.9853515625,-643.795654296875,-1235.490478515625,-1447.318603515625
315888.0509144803,-633.4744262695312,-1201.093017578125,-1059.7850341796875,-1105.3006591796875,-1038.86572265625,-641.963623046875,-1235.7232666015625,-1447.02490234375
315888.0549144803,-645.03515625,-1213.246337890625,-1072.2969970703125,-1117.5113525390625,-1049.98291015625,-652.2523803710938,-1248.4027099609375,-1458.9298095703125
315888.0589144803,-650.9894409179688,-1218.7529296875,-1077.9630126953125,-1123.0418701171875,-1055.945068359375,-658.5244140625,-1253.861328125,-1464.5672607421875
315888.06291448034,-645.0711669921875,-1212.0802001953125,-1071.21435546875,-1116.4022216796875,-1050.2880859375,-653.6268310546875,-1246.8309326171875,-1458.1424560546875
315888.0669144803,-634.4476318359375,-1201.25537109375,-1060.041748046875,-1105.4964599609375,-1040.0572509765625,-643.903564453125,-1235.5355224609375,-1447.4210205078125
315888.0709144803,-633.7067260742188,-1201.4947509765625,-1060.115234375,-1105.5284423828125,-1039.25244140625,-642.372314453125,-1235.856201171875,-1447.3756103515625
315888.0749144803,-645.3748779296875,-1213.9088134765625,-1072.8345947265625,-1117.9310302734375,-1050.554443359375,-652.6990356445312,-1248.9033203125,-1459.6817626953125
315888.07891448034,-650.8290405273438,-1218.9083251953125,-1077.968505859375,-1122.967041015625,-1055.9600830078125,-658.3035888671875,-1253.99365234375,-1464.8751220703125
315888.0829144803,-644.9712524414062,-1212.353515625,-1071.3143310546875,-1116.4351806640625,-1050.4110107421875,-653.449462890625,-1247.0802001953125,-1458.5740966796875
315888.0869144803,-634.7254028320312,-1201.782958984375,-1060.4384765625,-1105.8187255859375,-1040.4884033203125,-643.978515625,-1236.1644287109375,-1448.117431640625
315888.09091448033,-634.19482421875,-1201.9373779296875,-1060.56689453125,-1105.9190673828125,-1039.671630859375,-642.5197143554688,-1236.6390380859375,-1447.9990234375
315888.09491448035,-645.539794921875,-1213.829833984375,-1072.87158203125,-1117.9234619140625,-1050.5478515625,-652.6265869140625,-1249.11865234375,-1459.690673828125
315888.0989144803,-651.4705200195312,-1219.370849609375,-1078.553466796875,-1123.4390869140625,-1056.5230712890625,-658.8336181640625,-1254.6572265625,-1465.3841552734375
315888.1029144803,-645.9209594726562,-1213.087890625,-1072.1826171875,-1117.193115234375,-1051.2957763671875,-654.322265625,-1247.987548828125,-1459.267578125
315888.10691448033,-635.1031494140625,-1202.033203125,-1060.7872314453125,-1106.1259765625,-1040.8646240234375,-644.4076538085938,-1236.395263671875,-1448.2548828125
315888.1109144803,-634.3511962890625,-1202.18310546875,-1060.835205078125,-1106.2313232421875,-1040.0108642578125,-642.866943359375,-1236.761474609375,-1448.1768798828125
315888.1149144803,-646.0093994140625,-1214.5882568359375,-1073.517578125,-1118.549072265625,-1051.311279296875,-653.24560546875,-1249.6851806640625,-1460.3961181640625
315888.1189144803,-652.0031127929688,-1220.2247314453125,-1079.2918701171875,-1124.2584228515625,-1057.35791015625,-659.5321044921875,-1255.228271484375,-1466.155029296875
315888.12291448034,-646.229248046875,-1213.659423828125,-1072.666748046875,-1117.820556640625,-1051.8248291015625,-654.7883911132812,-1248.334228515625,-1459.819091796875
315888.1269144803,-635.6527099609375,-1202.6693115234375,-1061.3817138671875,-1106.892333984375,-1041.4456787109375,-644.9921875,-1237.01025390625,-1448.92578125
315888.1309144803,-634.9777221679688,-1202.689697265625,-1061.353271484375,-1106.893310546875,-1040.4974365234375,-643.4234619140625,-1237.39599609375,-1448.717041015625
315888.13491448027,-646.0084228515625,-1214.2669677734375,-1073.3326416015625,-1118.5865478515625,-1051.076416015625,-653.2526245117188,-1249.5732421875,-1460.096435546875
315888.1389144803,-651.4735107421875,-1219.132080078125,-1078.4295654296875,-1123.6209716796875,-1056.4566650390625,-659.0175170898438,-1254.4183349609375,-1465.031494140625
315888.1429144803,-646.1627807617188,-1213.075439453125,-1072.2520751953125,-1117.5662841796875,-1051.4442138671875,-654.7523803710938,-1247.9300537109375,-1459.138671875
315888.1469144803,-635.53125,-1202.1441650390625,-1060.99853515625,-1106.567138671875,-1041.1434326171875,-644.9752197265625,-1236.609130859375,-1448.268310546875
315888.1509144803,-634.9407348632812,-1202.3834228515625,-1061.1348876953125,-1106.62451171875,-1040.321044921875,-643.4624633789062,-1237.0982666015625,-1448.3028564453125
315888.1549144803,-645.9589233398438,-1214.067138671875,-1073.1812744140625,-1118.3201904296875,-1050.9490966796875,-653.2271118164062,-1249.3299560546875,-1459.85107421875
315888.1589144803,-651.4220581054688,-1219.0491943359375,-1078.3402099609375,-1123.3736572265625,-1056.394775390625,-658.9176025390625,-1254.2774658203125,-1464.95849609375
315888.1629144803,-645.7081298828125,-1212.5123291015625,-1071.75244140625,-1116.893798828125,-1050.9046630859375,-654.1918334960938,-1247.3709716796875,-1458.5955810546875
315888.16691448033,-635.4158935546875,-1202.0682373046875,-1060.944580078125,-1106.38720703125,-1041.0780029296875,-644.9082641601562,-1236.4132080078125,-1448.177978515625
315888.1709144803,-634.7059326171875,-1202.1671142578125,-1060.944580078125,-1106.3997802734375,-1040.2156982421875,-643.4224853515625,-1236.7105712890625,-1448.0025634765625
315888.1749144803,-645.74658203125,-1213.8262939453125,-1072.9664306640625,-1118.0303955078125,-1050.8536376953125,-653.2236328125,-1248.896240234375,-1459.429931640625
315888.1789144803,-651.1927490234375,-1218.9241943359375,-1078.21923828125,-1123.2008056640625,-1056.353759765625,-658.9510498046875,-1253.9981689453125,-1464.710693359375
315888.1829144803,-646.0073852539062,-1213.185791015625,-1072.3404541015625,-1117.48486328125,-1051.548583984375,-654.8158569335938,-1247.8450927734375,-1459.24609375
315888.1869144803,-635.7960815429688,-1202.8575439453125,-1061.636474609375,-1107.0028076171875,-1041.7529296875,-645.3963623046875,-1237.125732421875,-1449.0582275390625
315888.1909144803,-635.1990356445312,-1202.9615478515625,-1061.6719970703125,-1106.9703369140625,-1040.8861083984375,-643.8511352539062,-1237.4974365234375,-1448.914306640625
315888.1949144803,-645.9963989257812,-1214.1146240234375,-1073.271240234375,-1118.26171875,-1051.095947265625,-653.3820190429688,-1249.2440185546875,-1459.8006591796875
315888.1989144803,-651.2167358398438,-1218.7723388671875,-1078.1463623046875,-1123.02490234375,-1056.2208251953125,-658.87109375,-1253.8787841796875,-1464.5333251953125
315888.2029144803,-645.3944091796875,-1212.11572265625,-1071.4342041015625,-1116.4891357421875,-1050.600830078125,-654.0949096679688,-1246.89892578125,-1458.04052734375
315888.20691448025,-635.52880859375,-1202.021728515625,-1060.9415283203125,-1106.322265625,-1041.06298828125,-645.0626831054688,-1236.3118896484375,-1447.97412109375
315888.21091448027,-634.764892578125,-1201.953857421875,-1060.80419921875,-1106.246826171875,-1040.0003662109375,-643.3560180664062,-1236.5946044921875,-1447.7313232421875
315888.2149144803,-645.476318359375,-1213.291748046875,-1072.5137939453125,-1117.6856689453125,-1050.30908203125,-652.7835083007812,-1248.5860595703125,-1458.956787109375
315888.2189144803,-651.4151000976562,-1218.786865234375,-1078.2022705078125,-1123.302734375,-1056.2802734375,-659.0079956054688,-1254.025146484375,-1464.5457763671875
315888.22291448025,-646.0318603515625,-1212.7127685546875,-1072.0462646484375,-1117.3409423828125,-1051.2388916015625,-654.7064208984375,-1247.5498046875,-1458.653076171875
315888.22691448027,-635.7161254882812,-1202.211669921875,-1061.202392578125,-1106.7779541015625,-1041.269775390625,-645.1485595703125,-1236.6705322265625,-1448.307373046875
315888.2309144803,-634.7134399414062,-1202.162109375,-1060.978515625,-1106.5120849609375,-1040.11572265625,-643.2091674804688,-1236.931396484375,-1448.1214599609375
315888.2349144803,-646.037353515625,-1214.259521484375,-1073.3726806640625,-1118.6224365234375,-1051.1474609375,-653.2975463867188,-1249.6126708984375,-1460.0909423828125
315888.23891448026,-651.77978515625,-1219.6632080078125,-1078.951171875,-1124.156494140625,-1056.998291015625,-659.4041748046875,-1254.9149169921875,-1465.6434326171875
315888.2429144803,-646.2841796875,-1213.423095703125,-1072.6317138671875,-1117.9130859375,-1051.762451171875,-654.873291015625,-1248.3526611328125,-1459.61474609375
315888.2469144803,-636.0993041992188,-1202.925048828125,-1061.79638671875,-1107.3094482421875,-1041.8673095703125,-645.454833984375,-1237.4473876953125,-1449.1776123046875
315888.2509144803,-635.3009643554688,-1202.8226318359375,-1061.6490478515625,-1107.281494140625,-1040.858154296875,-643.9205932617188,-1237.61376953125,-1448.784423828125
315888.25491448026,-645.7116088867188,-1213.84033203125,-1072.990478515625,-1118.34912109375,-1050.815185546875,-653.106201171875,-1249.1785888671875,-1459.5968017578125
315888.2589144803,-651.4005737304688,-1219.0186767578125,-1078.3441162109375,-1123.614501953125,-1056.442626953125,-658.9835205078125,-1254.326416015625,-1464.8465576171875
315888.2629144803,-646.4096069335938,-1213.3397216796875,-1072.5528564453125,-1117.8775634765625,-1051.7125244140625,-654.915771484375,-1248.290283203125,-1459.3580322265625
315888.2669144803,-635.7096557617188,-1202.3544921875,-1061.2073974609375,-1106.7904052734375,-1041.289306640625,-645.0177001953125,-1236.8843994140625,-1448.438232421875
315888.27091448026,-634.9677124023438,-1202.2410888671875,-1061.0565185546875,-1106.7593994140625,-1040.214111328125,-643.4204711914062,-1237.0582275390625,-1448.0650634765625
315888.2749144803,-645.9094848632812,-1214.005126953125,-1073.1318359375,-1118.531982421875,-1050.922119140625,-653.1836547851562,-1249.3529052734375,-1459.691162109375
315888.2789144803,-651.317138671875,-1219.1785888671875,-1078.380615234375,-1123.6300048828125,-1056.431640625,-658.7771606445312,-1254.4613037109375,-1465.0628662109375
315888.28291448025,-645.8160400390625,-1213.097412109375,-1072.1695556640625,-1117.517333984375,-1051.2723388671875,-654.2188110351562,-1248.0499267578125,-1459.2685546875
315888.28691448027,-635.81103515625,-1202.9520263671875,-1061.62255859375,-1107.2301025390625,-1041.6715087890625,-645.0411987304688,-1237.430908203125,-1449.238037109375
315888.2909144803,-634.7589111328125,-1202.5648193359375,-1061.2274169921875,-1106.8223876953125,-1040.33251953125,-643.11669921875,-1237.362548828125,-1448.6051025390625
315888.2949144803,-645.8600463867188,-1214.282470703125,-1073.3271484375,-1118.617919921875,-1051.054443359375,-653.0752563476562,-1249.6011962890625,-1460.143310546875
315888.29891448026,-650.9554443359375,-1218.9132080078125,-1078.118896484375,-1123.2886962890625,-1056.14892578125,-658.4664306640625,-1254.1666259765625,-1464.8690185546875
315888.3029144803,-645.9574584960938,-1213.1124267578125,-1072.2420654296875,-1117.5567626953125,-1051.3662109375,-654.40966796875,-1248.0379638671875,-1459.2420654296875
315888.3069144802,-636.0918579101562,-1202.925537109375,-1061.721923828125,-1107.2540283203125,-1041.765380859375,-645.325439453125,-1237.4254150390625,-1449.130615234375
315888.31091448024,-635.0316772460938,-1202.5968017578125,-1061.36279296875,-1106.8778076171875,-1040.5074462890625,-643.4884033203125,-1237.3065185546875,-1448.545654296875
315888.31491448026,-645.541259765625,-1213.8013916015625,-1072.9150390625,-1118.1339111328125,-1050.6563720703125,-652.7639770507812,-1249.108642578125,-1459.6522216796875
315888.3189144803,-651.6958618164062,-1219.5498046875,-1078.851806640625,-1123.958251953125,-1056.81787109375,-659.1683959960938,-1254.91943359375,-1465.616455078125
315888.32291448023,-646.9976196289062,-1214.044677734375,-1073.32421875,-1118.66748046875,-1052.35546875,-655.4932861328125,-1249.1220703125,-1460.30078125
315888.32691448025,-636.9985961914062,-1203.9991455078125,-1062.87255859375,-1108.528076171875,-1042.8480224609375,-646.3765869140625,-1238.590576171875,-1450.39111328125
315888.33091448026,-635.798095703125,-1203.720947265625,-1062.430419921875,-1107.993408203125,-1041.569091796875,-644.3692016601562,-1238.4755859375,-1449.8525390625
315888.3349144803,-646.3351440429688,-1214.765625,-1073.876708984375,-1119.1690673828125,-1051.6195068359375,-653.6822509765625,-1250.0848388671875,-1460.6553955078125
315888.33891448023,-651.5829467773438,-1219.4149169921875,-1078.725341796875,-1123.875732421875,-1056.6370849609375,-658.9300537109375,-1254.797607421875,-1465.4481201171875
315888.34291448025,-646.0953369140625,-1213.1868896484375,-1072.4068603515625,-1117.7042236328125,-1051.4571533203125,-654.5625610351562,-1248.1214599609375,-1459.3575439453125
315888.34691448027,-636.5419921875,-1203.4027099609375,-1062.2650146484375,-1107.9234619140625,-1042.3055419921875,-645.9379272460938,-1237.837646484375,-1449.6337890625
315888.3509144803,-635.5007934570312,-1203.17333984375,-1061.904296875,-1107.514404296875,-1041.10546875,-644.0884399414062,-1237.8197021484375,-1449.13916015625
315888.35491448024,-645.6221923828125,-1213.9017333984375,-1072.993896484375,-1118.270751953125,-1050.7781982421875,-652.911865234375,-1249.1571044921875,-1459.6357421875
315888.35891448025,-651.1682739257812,-1219.1170654296875,-1078.3646240234375,-1123.5460205078125,-1056.354736328125,-658.6577758789062,-1254.4158935546875,-1465.0364990234375
315888.36291448027,-646.2152099609375,-1213.2607421875,-1072.4698486328125,-1117.8131103515625,-1051.5316162109375,-654.6170043945312,-1248.314208984375,-1459.37548828125
315888.3669144803,-636.5139770507812,-1203.1153564453125,-1062.0167236328125,-1107.646240234375,-1042.0067138671875,-645.70166015625,-1237.7681884765625,-1449.2740478515625
315888.37091448024,-635.0366821289062,-1202.26708984375,-1061.1119384765625,-1106.837890625,-1040.2691650390625,-643.4519653320312,-1237.1312255859375,-1448.114990234375
315888.37491448026,-645.18603515625,-1213.04541015625,-1072.239501953125,-1117.690673828125,-1050.0323486328125,-652.3787841796875,-1248.4776611328125,-1458.68896484375
315888.3789144803,-650.7271118164062,-1218.2098388671875,-1077.59521484375,-1122.9639892578125,-1055.6053466796875,-658.1531982421875,-1253.6524658203125,-1464.01025390625
315888.3829144803,-646.4071044921875,-1213.2728271484375,-1072.5037841796875,-1118.0379638671875,-1051.6259765625,-654.8493041992188,-1248.2728271484375,-1459.2730712890625
315888.38691448024,-636.5844116210938,-1203.225830078125,-1062.087158203125,-1107.91552734375,-1042.142578125,-645.8619995117188,-1237.7882080078125,-1449.3394775390625
315888.39091448026,-635.5467529296875,-1202.9300537109375,-1061.722412109375,-1107.582275390625,-1040.925537109375,-644.0065307617188,-1237.7591552734375,-1448.8238525390625
315888.3949144803,-645.5487670898438,-1213.419189453125,-1072.63427734375,-1118.163330078125,-1050.4140625,-652.6710815429688,-1248.8863525390625,-1459.1396484375
315888.3989144803,-650.4178466796875,-1217.9281005859375,-1077.31201171875,-1122.7181396484375,-1055.3470458984375,-657.83447265625,-1253.3447265625,-1463.804931640625
315888.40291448025,-645.6217041015625,-1212.623291015625,-1071.830322265625,-1117.3504638671875,-1050.964111328125,-654.0694580078125,-1247.6602783203125,-1458.7554931640625
315888.40691448026,-636.8687133789062,-1203.7333984375,-1062.5247802734375,-1108.3631591796875,-1042.5758056640625,-646.1177978515625,-1238.4246826171875,-1450.06787109375
315888.4109144803,-635.9169921875,-1203.420166015625,-1062.1761474609375,-1107.95849609375,-1041.352783203125,-644.3192749023438,-1238.3951416015625,-1449.5223388671875
315888.4149144803,-645.453857421875,-1213.4500732421875,-1072.627197265625,-1118.0499267578125,-1050.381591796875,-652.5536499023438,-1248.990234375,-1459.3179931640625
315888.41891448025,-650.713134765625,-1218.4376220703125,-1077.7467041015625,-1123.117919921875,-1055.7337646484375,-658.0362548828125,-1253.935302734375,-1464.5313720703125
315888.42291448027,-646.068359375,-1213.3702392578125,-1072.4993896484375,-1117.971435546875,-1051.5521240234375,-654.4266967773438,-1248.440185546875,-1459.7496337890625
315888.4269144803,-637.3798217773438,-1204.5228271484375,-1063.272216796875,-1109.0401611328125,-1043.2471923828125,-646.5659790039062,-1239.2110595703125,-1451.0621337890625
315888.43091448024,-636.8662109375,-1204.6995849609375,-1063.4180908203125,-1109.2669677734375,-1042.5223388671875,-645.24853515625,-1239.6871337890625,-1451.0406494140625
315888.43491448025,-646.5025024414062,-1214.929443359375,-1074.070556640625,-1119.5787353515625,-1051.75244140625,-653.6697998046875,-1250.4610595703125,-1461.0511474609375
315888.43891448027,-651.424560546875,-1219.50732421875,-1078.790771484375,-1124.152587890625,-1056.699951171875,-658.84912109375,-1254.98193359375,-1465.7847900390625
315888.4429144803,-646.1038208007812,-1213.43408203125,-1072.6142578125,-1118.0859375,-1051.5736083984375,-654.4861450195312,-1248.5535888671875,-1459.8970947265625
315888.44691448024,-637.0540771484375,-1204.0406494140625,-1062.8570556640625,-1108.5555419921875,-1042.7471923828125,-646.209228515625,-1238.75439453125,-1450.5560302734375
315888.45091448026,-636.19775390625,-1203.8487548828125,-1062.6082763671875,-1108.3111572265625,-1041.6839599609375,-644.5740356445312,-1238.810791015625,-1450.0848388671875
315888.4549144802,-645.9354858398438,-1214.1241455078125,-1073.290771484375,-1118.6763916015625,-1050.9945068359375,-653.082763671875,-1249.64013671875,-1460.1029052734375
315888.45891448023,-651.359619140625,-1219.1605224609375,-1078.478515625,-1123.7493896484375,-1056.4571533203125,-658.729736328125,-1254.61669921875,-1465.249267578125
315888.46291448025,-646.4735107421875,-1213.6629638671875,-1072.819091796875,-1118.2203369140625,-1051.8858642578125,-654.7793579101562,-1248.722900390625,-1459.9859619140625
315888.46691448026,-637.156005859375,-1204.173583984375,-1062.9324951171875,-1108.646484375,-1042.935546875,-646.3301391601562,-1238.7938232421875,-1450.615478515625
315888.4709144802,-636.0493774414062,-1203.808349609375,-1062.518310546875,-1108.230712890625,-1041.60302734375,-644.3591918945312,-1238.7479248046875,-1450.06591796875
315888.47491448023,-645.5532836914062,-1213.719970703125,-1072.8740234375,-1118.2987060546875,-1050.56884765625,-652.5741577148438,-1249.261962890625,-1459.7486572265625
315888.47891448025,-650.37890625,-1218.0419921875,-1077.3729248046875,-1122.710205078125,-1055.3331298828125,-657.6575927734375,-1253.4881591796875,-1464.14013671875
315888.48291448026,-645.4093627929688,-1212.3800048828125,-1071.6180419921875,-1117.0477294921875,-1050.6533203125,-653.69775390625,-1247.50537109375,-1458.6905517578125
315888.4869144802,-636.510009765625,-1203.2017822265625,-1062.105712890625,-1107.85107421875,-1042.0731201171875,-645.6716918945312,-1237.9405517578125,-1449.59375
315888.49091448024,-635.5922241210938,-1203.011474609375,-1061.8433837890625,-1107.55126953125,-1040.9046630859375,-643.8635864257812,-1238.034423828125,-1449.1826171875
315888.49491448025,-645.3699340820312,-1213.4991455078125,-1072.6767578125,-1118.078857421875,-1050.3470458984375,-652.4327392578125,-1249.0516357421875,-1459.5093994140625
315888.49891448027,-650.5852661132812,-1218.40869140625,-1077.7381591796875,-1123.0728759765625,-1055.6683349609375,-657.9388427734375,-1253.938232421875,-1464.5762939453125
315888.5029144803,-645.31396484375,-1212.4208984375,-1071.6490478515625,-1117.1427001953125,-1050.6492919921875,-653.6328125,-1247.577392578125,-1458.794921875
315888.50691448024,-635.8765258789062,-1202.65380859375,-1061.5230712890625,-1107.2525634765625,-1041.4456787109375,-644.980224609375,-1237.39404296875,-1449.1346435546875
315888.51091448026,-635.1375732421875,-1202.4864501953125,-1061.3687744140625,-1107.151611328125,-1040.404052734375,-643.4264526367188,-1237.5718994140625,-1448.7335205078125
315888.51491448027,-644.79638671875,-1212.548828125,-1071.9388427734375,-1117.4168701171875,-1049.5501708984375,-651.854736328125,-1248.2542724609375,-1458.5576171875
315888.5189144803,-650.3524169921875,-1217.6268310546875,-1077.216552734375,-1122.561279296875,-1055.0528564453125,-657.6550903320312,-1253.2757568359375,-1463.7294921875
315888.52291448024,-645.3589477539062,-1211.8829345703125,-1071.3887939453125,-1116.8563232421875,-1050.3031005859375,-653.6727905273438,-1247.13671875,-1458.1195068359375
315888.52691448026,-636.0763549804688,-1202.410400390625,-1061.5225830078125,-1107.277587890625,-1041.3822021484375,-645.2000732421875,-1237.2535400390625,-1448.7734375
315888.5309144803,-635.4228515625,-1202.4599609375,-1061.537109375,-1107.3485107421875,-1040.52197265625,-643.6947631835938,-1237.6258544921875,-1448.590087890625
315888.5349144803,-644.8828125,-1212.39599609375,-1071.90087890625,-1117.386474609375,-1049.46923828125,-651.8582153320312,-1248.1973876953125,-1458.290283203125
315888.53891448025,-649.6944580078125,-1216.827880859375,-1076.483642578125,-1121.8209228515625,-1054.3173828125,-656.9116821289062,-1252.61328125,-1462.8681640625
315888.54291448026,-645.2245483398438,-1211.697998046875,-1071.1844482421875,-1116.6815185546875,-1050.1221923828125,-653.3909912109375,-1247.05322265625,-1457.9166259765625
315888.5469144803,-635.8175659179688,-1201.92041015625,-1061.0589599609375,-1106.8624267578125,-1040.974609375,-644.8328247070312,-1236.85546875,-1448.16845703125
315888.5509144803,-634.7354125976562,-1201.5611572265625,-1060.6463623046875,-1106.4471435546875,-1039.6915283203125,-642.9852905273438,-1236.7440185546875,-1447.56396484375
315888.55491448025,-644.5550537109375,-1212.0472412109375,-1071.504150390625,-1116.933837890625,-1049.1380615234375,-651.6109008789062,-1247.6827392578125,-1457.835205078125
315888.55891448027,-649.5775756835938,-1216.72705078125,-1076.30078125,-1121.5086669921875,-1054.1820068359375,-656.84375,-1252.236572265625,-1462.597412109375
315888.5629144803,-645.2579956054688,-1211.760009765625,-1071.1878662109375,-1116.4976806640625,-1050.1507568359375,-653.4559326171875,-1246.913818359375,-1457.8416748046875
315888.5669144803,-636.0318603515625,-1202.33203125,-1061.3792724609375,-1107.00830078125,-1041.2828369140625,-645.05517578125,-1237.1142578125,-1448.6085205078125
315888.57091448025,-635.0511474609375,-1202.191650390625,-1061.138427734375,-1106.764404296875,-1040.1761474609375,-643.2800903320312,-1237.3250732421875,-1448.3448486328125
315888.57491448027,-644.7139282226562,-1212.431396484375,-1071.818359375,-1117.140625,-1049.42626953125,-651.6763916015625,-1248.2513427734375,-1458.4122314453125
315888.5789144802,-649.914794921875,-1217.233642578125,-1076.7939453125,-1122.0382080078125,-1054.642578125,-657.1300048828125,-1253.041015625,-1463.3363037109375
315888.58291448024,-645.1146240234375,-1211.935302734375,-1071.3033447265625,-1116.6051025390625,-1050.2401123046875,-653.2755737304688,-1247.3695068359375,-1458.3153076171875
315888.58691448026,-636.1138305664062,-1202.7891845703125,-1061.7349853515625,-1107.3564453125,-1041.6180419921875,-645.1006469726562,-1237.7696533203125,-1449.31396484375
315888.5909144803,-634.8033447265625,-1202.1881103515625,-1061.051513671875,-1106.7080078125,-1040.080810546875,-643.0028076171875,-1237.3719482421875,-1448.4552001953125
315888.5949144802,-644.4027099609375,-1212.297607421875,-1071.6075439453125,-1116.954833984375,-1049.1734619140625,-651.317626953125,-1248.053466796875,-1458.350341796875
315888.59891448024,-649.4486694335938,-1217.0062255859375,-1076.461181640625,-1121.732421875,-1054.23291015625,-656.5619506835938,-1252.7242431640625,-1463.224365234375
315888.60291448026,-644.8658447265625,-1211.72705078125,-1071.0469970703125,-1116.4791259765625,-1049.9559326171875,-652.98583984375,-1247.0797119140625,-1458.14697265625
315888.6069144803,-635.6411743164062,-1202.173095703125,-1061.14794921875,-1106.9102783203125,-1041.029052734375,-644.6060180664062,-1237.1092529296875,-1448.673583984375
315888.61091448023,-635.0616455078125,-1202.3040771484375,-1061.2119140625,-1107.0567626953125,-1040.2401123046875,-643.2221069335938,-1237.5223388671875,-1448.5650634765625
315888.61491448025,-645.0361938476562,-1212.861083984375,-1072.173095703125,-1117.6982421875,-1049.7640380859375,-651.9107055664062,-1248.6524658203125,-1458.913818359375
315888.61891448026,-650.14208984375,-1217.7032470703125,-1077.152587890625,-1122.5767822265625,-1054.9884033203125,-657.2689208984375,-1253.421142578125,-1463.90185546875
315888.6229144803,-645.4383544921875,-1212.3759765625,-1071.6610107421875,-1117.2095947265625,-1050.6707763671875,-653.61083984375,-1247.709716796875,-1458.7669677734375
315888.62691448024,-636.3555908203125,-1202.9630126953125,-1061.90087890625,-1107.7572021484375,-1041.88037109375,-645.3659057617188,-1237.9176025390625,-1449.48291015625
315888.63091448025,-635.412353515625,-1202.78759765625,-1061.677001953125,-1107.5068359375,-1040.7562255859375,-643.665771484375,-1238.030029296875,-1449.095703125
315888.63491448027,-644.9437255859375,-1212.7376708984375,-1072.138671875,-1117.6971435546875,-1049.760498046875,-651.9546508789062,-1248.5760498046875,-1458.7744140625
315888.6389144803,-650.2465209960938,-1217.7197265625,-1077.24560546875,-1122.6427001953125,-1055.0947265625,-657.4302368164062,-1253.484619140625,-1463.868408203125
315888.64291448024,-645.369384765625,-1212.1876220703125,-1071.570068359375,-1117.0062255859375,-1050.52197265625,-653.5293579101562,-1247.5244140625,-1458.5220947265625
315888.64691448025,-635.96044921875,-1202.5213623046875,-1061.53662109375,-1107.1905517578125,-1041.4442138671875,-644.9387817382812,-1237.48095703125,-1448.9808349609375
315888.65091448027,-634.7518920898438,-1202.0343017578125,-1060.95361328125,-1106.656005859375,-1040.016845703125,-642.9618530273438,-1237.2470703125,-1448.2353515625
315888.6549144802,-644.3597412109375,-1212.3349609375,-1071.636474609375,-1117.020751953125,-1049.2669677734375,-651.2911987304688,-1248.1513671875,-1458.36328125
315888.65891448024,-650.0156860351562,-1217.7996826171875,-1077.213623046875,-1122.4803466796875,-1055.0767822265625,-657.199951171875,-1253.6219482421875,-1464.0582275390625
315888.66291448026,-645.6217041015625,-1212.8431396484375,-1072.109130859375,-1117.4598388671875,-1051.04248046875,-653.816162109375,-1248.2943115234375,-1459.4024658203125
315888.6669144803,-636.0423583984375,-1203.15283203125,-1062.03515625,-1107.6796875,-1041.947265625,-645.1550903320312,-1238.1983642578125,-1449.8751220703125
315888.67091448023,-634.872314453125,-1202.6917724609375,-1061.49560546875,-1107.260009765625,-1040.598388671875,-643.2391357421875,-1237.944091796875,-1449.1317138671875
315888.67491448025,-644.8203735351562,-1213.1478271484375,-1072.3594970703125,-1117.80908203125,-1050.0333251953125,-651.9116821289062,-1248.917236328125,-1459.299560546875
315888.6789144802,-649.90478515625,-1217.89404296875,-1077.27197265625,-1122.615234375,-1055.177734375,-657.264892578125,-1253.6319580078125,-1464.1756591796875
315888.6829144802,-645.1395874023438,-1212.482421875,-1071.728515625,-1117.234619140625,-1050.709228515625,-653.4404296875,-1247.837158203125,-1459.0162353515625
315888.68691448023,-635.821044921875,-1202.830078125,-1061.71142578125,-1107.5263671875,-1041.6729736328125,-644.9777221679688,-1237.7772216796875,-1449.4578857421875
315888.69091448025,-634.6080322265625,-1202.343017578125,-1061.12890625,-1106.9627685546875,-1040.256103515625,-642.96484375,-1237.5074462890625,-1448.7049560546875
315888.6949144802,-644.7953491210938,-1213.139404296875,-1072.3175048828125,-1117.8045654296875,-1050.0467529296875,-651.9031982421875,-1248.83984375,-1459.2205810546875
315888.6989144802,-649.980712890625,-1217.879638671875,-1077.258056640625,-1122.63720703125,-1055.17724609375,-657.2598876953125,-1253.6214599609375,-1464.1141357421875
315888.70291448024,-645.3704223632812,-1212.5943603515625,-1071.8348388671875,-1117.3709716796875,-1050.835205078125,-653.6248168945312,-1248.009033203125,-1459.106689453125
315888.70691448025,-636.3196411132812,-1203.23681640625,-1062.09814453125,-1107.8895263671875,-1042.086181640625,-645.3939208984375,-1238.2432861328125,-1449.8436279296875
315888.7109144802,-635.110107421875,-1202.6397705078125,-1061.4432373046875,-1107.2666015625,-1040.60888671875,-643.4269409179688,-1237.8001708984375,-1448.914306640625
315888.7149144802,-644.3032836914062,-1212.2830810546875,-1071.526611328125,-1117.0172119140625,-1049.221923828125,-651.2866821289062,-1248.0224609375,-1458.2947998046875
315888.71891448024,-649.6814575195312,-1217.3031005859375,-1076.6944580078125,-1122.0487060546875,-1054.5946044921875,-656.8317260742188,-1253.030029296875,-1463.4742431640625
315888.72291448025,-644.1453857421875,-1211.0789794921875,-1070.3455810546875,-1115.8431396484375,-1049.3643798828125,-652.3053588867188,-1246.4083251953125,-1457.4549560546875
315888.7269144802,-634.938232421875,-1201.546142578125,-1060.4454345703125,-1106.2088623046875,-1040.4434814453125,-643.95556640625,-1236.440185546875,-1448.008056640625
315888.7309144802,-634.1463623046875,-1201.4891357421875,-1060.299072265625,-1106.10791015625,-1039.4547119140625,-642.4542236328125,-1236.5626220703125,-1447.6778564453125
315888.73491448024,-643.5523681640625,-1211.394775390625,-1070.6583251953125,-1116.0994873046875,-1048.3311767578125,-650.5432739257812,-1247.07373046875,-1457.3470458984375
315888.73891448026,-648.8786010742188,-1216.2359619140625,-1075.7142333984375,-1121.005615234375,-1053.5765380859375,-655.9974365234375,-1251.8984375,-1462.28662109375
315888.7429144802,-644.3806762695312,-1211.017578125,-1070.3809814453125,-1115.7772216796875,-1049.3848876953125,-652.5511474609375,-1246.29638671875,-1457.2481689453125
315888.74691448023,-635.3453979492188,-1201.7259521484375,-1060.697265625,-1106.3817138671875,-1040.706787109375,-644.3876953125,-1236.587158203125,-1448.052978515625
315888.75091448025,-633.4519653320312,-1200.5928955078125,-1059.46923828125,-1105.233154296875,-1038.65185546875,-641.7348022460938,-1235.67431640625,-1446.7215576171875
315888.7549144802,-643.4789428710938,-1211.1939697265625,-1070.5009765625,-1116.0111083984375,-1048.1827392578125,-650.4703369140625,-1246.8984375,-1457.15771484375
315888.7589144802,-649.2453002929688,-1216.4886474609375,-1076.0440673828125,-1121.4031982421875,-1053.90673828125,-656.4520263671875,-1252.2396240234375,-1462.5838623046875
315888.76291448023,-644.8113403320312,-1211.4847412109375,-1070.878173828125,-1116.3492431640625,-1049.8609619140625,-653.0302734375,-1246.848876953125,-1457.8092041015625
315888.76691448025,-635.70361328125,-1202.1846923828125,-1061.1778564453125,-1106.979736328125,-1041.1343994140625,-644.7893676757812,-1237.1021728515625,-1448.6160888671875
315888.7709144802,-634.2453002929688,-1201.3677978515625,-1060.297119140625,-1106.115966796875,-1039.371337890625,-642.4642333984375,-1236.57666015625,-1447.5859375
315888.7749144802,-643.8111572265625,-1211.4847412109375,-1070.814697265625,-1116.2408447265625,-1048.377685546875,-650.647705078125,-1247.322998046875,-1457.544921875
315888.77891448024,-649.1803588867188,-1216.3857421875,-1075.91064453125,-1121.1744384765625,-1053.679443359375,-656.19873046875,-1252.1541748046875,-1462.5198974609375
315888.78291448025,-644.2603149414062,-1210.6553955078125,-1070.11376953125,-1115.512451171875,-1049.01416015625,-652.3103637695312,-1246.0166015625,-1456.9129638671875
315888.7869144802,-634.9172973632812,-1201.0615234375,-1060.1392822265625,-1105.8466796875,-1040.03125,-643.8521118164062,-1235.99365234375,-1447.41552734375
315888.7909144802,-633.33154296875,-1200.1717529296875,-1059.1729736328125,-1104.9268798828125,-1038.207763671875,-641.468017578125,-1235.3646240234375,-1446.2904052734375
315888.79491448024,-643.4144897460938,-1210.7138671875,-1070.169677734375,-1115.6448974609375,-1047.7880859375,-650.2944946289062,-1246.4837646484375,-1456.5452880859375
315888.79891448026,-648.24462890625,-1215.08935546875,-1074.7344970703125,-1120.13720703125,-1052.61474609375,-655.35791015625,-1250.7843017578125,-1460.9881591796875
315888.8029144803,-643.7981567382812,-1209.9473876953125,-1069.4837646484375,-1115.0772705078125,-1048.47705078125,-651.9146728515625,-1245.2822265625,-1456.044189453125
315888.8069144802,-634.8433227539062,-1200.8277587890625,-1059.9593505859375,-1105.833740234375,-1039.951416015625,-643.8786010742188,-1235.73974609375,-1447.02978515625
315888.81091448024,-633.535888671875,-1200.3321533203125,-1059.3333740234375,-1105.2646484375,-1038.4930419921875,-641.802734375,-1235.465576171875,-1446.3603515625
315888.81491448026,-643.7532348632812,-1211.16748046875,-1070.5594482421875,-1116.1768798828125,-1048.2437744140625,-650.6856689453125,-1246.8748779296875,-1457.060302734375
315888.8189144803,-648.7387084960938,-1215.724853515625,-1075.3095703125,-1120.773681640625,-1053.17333984375,-655.7691040039062,-1251.4752197265625,-1461.758056640625
315888.82291448023,-643.6642456054688,-1209.94091796875,-1069.40283203125,-1114.9638671875,-1048.3836669921875,-651.6463623046875,-1245.3111572265625,-1456.177001953125
315888.82691448025,-634.5186157226562,-1200.5728759765625,-1059.64306640625,-1105.478515625,-1039.5821533203125,-643.343505859375,-1235.5074462890625,-1446.951904296875
315888.83091448026,-633.4029541015625,-1200.211669921875,-1059.1929931640625,-1105.0572509765625,-1038.296142578125,-641.4815063476562,-1235.3675537109375,-1446.3653564453125
315888.8349144803,-643.0427856445312,-1210.521484375,-1069.8919677734375,-1115.3775634765625,-1047.5318603515625,-649.807373046875,-1246.244873046875,-1456.46875
315888.83891448023,-648.7656860351562,-1216.0355224609375,-1075.54345703125,-1120.922607421875,-1053.3751220703125,-655.7506103515625,-1251.7135009765625,-1462.1417236328125
315888.84291448025,-644.1793823242188,-1210.90966796875,-1070.275146484375,-1115.80126953125,-1049.1954345703125,-652.199951171875,-1246.2464599609375,-1457.2696533203125
315888.84691448027,-635.1256103515625,-1201.6165771484375,-1060.6058349609375,-1106.394775390625,-1040.4609375,-643.9825439453125,-1236.5546875,-1448.116455078125
315888.8509144803,-633.7007446289062,-1200.8311767578125,-1059.739990234375,-1105.54736328125,-1038.789306640625,-641.7852783203125,-1236.025634765625,-1447.080810546875
315888.85491448024,-643.7966918945312,-1211.3818359375,-1070.7322998046875,-1116.285888671875,-1048.3546142578125,-650.6162109375,-1247.2255859375,-1457.425048828125
315888.85891448025,-649.1993408203125,-1216.3812255859375,-1075.942138671875,-1121.3067626953125,-1053.7103271484375,-656.1522827148438,-1252.233154296875,-1462.5723876953125
315888.86291448027,-644.2013549804688,-1210.7862548828125,-1070.1761474609375,-1115.6239013671875,-1049.08154296875,-652.1809692382812,-1246.1240234375,-1457.1531982421875
315888.8669144803,-634.9891967773438,-1201.349365234375,-1060.3505859375,-1106.1259765625,-1040.2451171875,-643.89208984375,-1236.1944580078125,-1447.793212890625
315888.87091448024,-633.278564453125,-1200.4794921875,-1059.3438720703125,-1105.124267578125,-1038.43408203125,-641.510009765625,-1235.4825439453125,-1446.70361328125
315888.87491448026,-642.7460327148438,-1210.5174560546875,-1069.824951171875,-1115.2501220703125,-1047.429931640625,-649.6489868164062,-1246.1729736328125,-1456.5133056640625
315888.8789144803,-648.7197265625,-1216.21337890625,-1075.697265625,-1121.008544921875,-1053.468505859375,-655.7791137695312,-1251.9073486328125,-1462.384033203125
315888.8829144803,-644.1044311523438,-1211.0565185546875,-1070.3800048828125,-1115.86669921875,-1049.2989501953125,-652.2529296875,-1246.327392578125,-1457.5079345703125
315888.88691448024,-635.01220703125,-1201.7889404296875,-1060.6612548828125,-1106.4052734375,-1040.5494384765625,-643.9170532226562,-1236.654052734375,-1448.4027099609375
315888.89091448026,-633.7501831054688,-1201.222412109375,-1059.9989013671875,-1105.769287109375,-1039.069580078125,-641.8252563476562,-1236.374267578125,-1447.6318359375
315888.8949144803,-643.6163330078125,-1211.5167236328125,-1070.7762451171875,-1116.2613525390625,-1048.357666015625,-650.3729248046875,-1247.2926025390625,-1457.6812744140625
315888.8989144803,-649.3826904296875,-1216.846923828125,-1076.3408203125,-1121.7125244140625,-1054.049560546875,-656.2642211914062,-1252.6552734375,-1463.1424560546875
315888.9029144803,-644.3607177734375,-1211.1729736328125,-1070.5413818359375,-1116.0445556640625,-1049.368896484375,-652.2344360351562,-1246.5916748046875,-1457.67138671875
315888.90691448026,-635.3359375,-1202.0068359375,-1060.91162109375,-1106.700439453125,-1040.7822265625,-644.1224365234375,-1236.8719482421875,-1448.55615234375
315888.9109144803,-633.9215698242188,-1201.2353515625,-1060.07177734375,-1105.900146484375,-1039.177490234375,-641.99658203125,-1236.3427734375,-1447.4984130859375
315888.9149144803,-643.3295288085938,-1211.18994140625,-1070.4520263671875,-1115.9796142578125,-1048.1163330078125,-650.1470947265625,-1246.89990234375,-1457.22216796875
315888.9189144803,-648.8900756835938,-1216.3358154296875,-1075.82568359375,-1121.2313232421875,-1053.6558837890625,-655.8925170898438,-1252.1121826171875,-1462.4974365234375
315888.9229144803,-644.5640258789062,-1211.2684326171875,-1070.6492919921875,-1116.193359375,-1049.5792236328125,-652.5486450195312,-1246.6820068359375,-1457.6353759765625
315888.9269144803,-635.09765625,-1201.4912109375,-1060.4730224609375,-1106.33984375,-1040.43603515625,-643.9705200195312,-1236.38330078125,-1447.9581298828125
315888.9309144803,-634.0164794921875,-1201.146484375,-1060.017333984375,-1105.9691162109375,-1039.198486328125,-642.1619873046875,-1236.2833251953125,-1447.3720703125
315888.9349144803,-643.8226318359375,-1211.4931640625,-1070.8106689453125,-1116.437255859375,-1048.488037109375,-650.6326904296875,-1247.2960205078125,-1457.52294921875
315888.9389144803,-649.1528930664062,-1216.2978515625,-1075.8397216796875,-1121.352783203125,-1053.7093505859375,-656.0933227539062,-1252.1427001953125,-1462.4215087890625
315888.9429144803,-644.7379150390625,-1211.135498046875,-1070.555908203125,-1116.203369140625,-1049.545166015625,-652.6271362304688,-1246.6466064453125,-1457.466552734375
315888.9469144803,-635.3668823242188,-1201.5711669921875,-1060.56884765625,-1106.5206298828125,-1040.5953369140625,-644.1488647460938,-1236.6026611328125,-1448.0166015625
315888.9509144803,-634.193359375,-1201.0889892578125,-1060.0242919921875,-1106.049072265625,-1039.2379150390625,-642.2134399414062,-1236.40283203125,-1447.3095703125
315888.95491448033,-643.9320678710938,-1211.439208984375,-1070.80322265625,-1116.461669921875,-1048.5045166015625,-650.6616821289062,-1247.3599853515625,-1457.4539794921875
315888.9589144803,-649.8583374023438,-1216.910400390625,-1076.5086669921875,-1122.0771484375,-1054.3748779296875,-656.7868041992188,-1252.8515625,-1463.0235595703125
315888.9629144803,-645.324951171875,-1211.781494140625,-1071.2203369140625,-1116.83837890625,-1050.145751953125,-653.1781616210938,-1247.3385009765625,-1458.1734619140625
315888.9669144803,-635.7421264648438,-1202.128173828125,-1061.1019287109375,-1106.9403076171875,-1040.9954833984375,-644.420654296875,-1237.2291259765625,-1448.7359619140625
315888.97091448033,-634.1239013671875,-1201.2178955078125,-1060.0963134765625,-1106.0250244140625,-1039.1710205078125,-642.0740356445312,-1236.5941162109375,-1447.6143798828125
315888.9749144803,-644.3876953125,-1211.9443359375,-1071.2733154296875,-1116.904296875,-1048.86328125,-650.994384765625,-1247.9425048828125,-1458.0684814453125
315888.9789144803,-650.2105102539062,-1217.310546875,-1076.893310546875,-1122.385009765625,-1054.66357421875,-656.9966430664062,-1253.335693359375,-1463.537109375
315888.9829144803,-645.1930541992188,-1211.653076171875,-1071.0880126953125,-1116.666015625,-1049.9798583984375,-652.9623413085938,-1247.3170166015625,-1458.1119384765625
315888.98691448034,-635.3129272460938,-1201.524658203125,-1060.533447265625,-1106.4427490234375,-1040.4669189453125,-643.9440307617188,-1236.7364501953125,-1448.095458984375
315888.9909144803,-633.623291015625,-1200.75927734375,-1059.5931396484375,-1105.5399169921875,-1038.7283935546875,-641.576416015625,-1236.12744140625,-1447.1072998046875
315888.9949144803,-643.8021850585938,-1211.6146240234375,-1070.836669921875,-1116.44873046875,-1048.5020751953125,-650.4893188476562,-1247.558349609375,-1457.729248046875
315888.9989144803,-649.9352416992188,-1217.2725830078125,-1076.7359619140625,-1122.1976318359375,-1054.5616455078125,-656.789306640625,-1253.2403564453125,-1463.51171875
315889.00291448034,-645.109619140625,-1211.673583984375,-1071.0694580078125,-1116.6490478515625,-1049.9788818359375,-652.9513549804688,-1247.2725830078125,-1458.1544189453125
315889.0069144803,-635.4178466796875,-1201.7659912109375,-1060.76220703125,-1106.6370849609375,-1040.6893310546875,-644.1553955078125,-1236.909912109375,-1448.397216796875
315889.0109144803,-633.8836059570312,-1200.9681396484375,-1059.8544921875,-1105.7886962890625,-1038.9361572265625,-641.8362426757812,-1236.3692626953125,-1447.3861083984375
315889.0149144803,-643.9370727539062,-1211.6900634765625,-1070.9615478515625,-1116.60107421875,-1048.5594482421875,-650.61572265625,-1247.6822509765625,-1457.8612060546875
315889.01891448034,-649.3717041015625,-1216.8189697265625,-1076.27734375,-1121.7459716796875,-1054.0750732421875,-656.26318359375,-1252.7806396484375,-1463.094482421875
315889.0229144803,-645.1571044921875,-1211.868896484375,-1071.2503662109375,-1116.7889404296875,-1050.1636962890625,-653.0048217773438,-1247.474365234375,-1458.371826171875
315889.0269144803,-635.6097412109375,-1201.9488525390625,-1060.97509765625,-1106.8853759765625,-1040.9410400390625,-644.3917236328125,-1237.020263671875,-1448.4976806640625
315889.03091448033,-633.8836059570312,-1200.8896484375,-1059.8099365234375,-1105.816650390625,-1038.9896240234375,-642.0076293945312,-1236.12548828125,-1447.1082763671875
315889.03491448035,-643.6802368164062,-1211.1259765625,-1070.52197265625,-1116.1983642578125,-1048.1788330078125,-650.454833984375,-1247.0697021484375,-1457.0782470703125
315889.0389144803,-649.2727661132812,-1216.115478515625,-1075.7747802734375,-1121.3642578125,-1053.6343994140625,-656.2286987304688,-1252.0487060546875,-1462.122802734375
315889.0429144803,-644.6599731445312,-1210.89013671875,-1070.3670654296875,-1115.97705078125,-1049.3419189453125,-652.5062255859375,-1246.417724609375,-1457.146240234375
315889.04691448034,-635.0866088867188,-1201.0555419921875,-1060.1502685546875,-1106.01904296875,-1040.0982666015625,-643.7542114257812,-1236.156005859375,-1447.48193359375
315889.05091448035,-633.4544677734375,-1200.143798828125,-1059.1500244140625,-1105.144775390625,-1038.2996826171875,-641.4500732421875,-1235.447998046875,-1446.3194580078125
315889.0549144803,-643.5823364257812,-1210.8167724609375,-1070.256103515625,-1115.9385986328125,-1047.882568359375,-650.2310180664062,-1246.804931640625,-1456.76611328125
315889.0589144803,-649.7459106445312,-1216.4632568359375,-1076.1658935546875,-1121.6824951171875,-1053.9261474609375,-656.5255126953125,-1252.5318603515625,-1462.5299072265625
315889.06291448034,-644.8663330078125,-1210.876220703125,-1070.470458984375,-1116.08349609375,-1049.3682861328125,-652.6725463867188,-1246.5076904296875,-1457.1378173828125
315889.06691448035,-634.808349609375,-1200.5704345703125,-1059.7769775390625,-1105.7137451171875,-1039.7105712890625,-643.5453491210938,-1235.71484375,-1446.9683837890625
315889.0709144803,-633.4669189453125,-1199.928955078125,-1059.0506591796875,-1105.0867919921875,-1038.1793212890625,-641.5054931640625,-1235.30419921875,-1446.10205078125
315889.0749144803,-643.8031616210938,-1210.789306640625,-1070.3770751953125,-1116.136474609375,-1047.9864501953125,-650.5377807617188,-1246.791015625,-1456.7105712890625
315889.07891448034,-649.0089721679688,-1215.6298828125,-1075.4444580078125,-1121.0140380859375,-1053.2242431640625,-656.0478515625,-1251.6046142578125,-1461.648193359375
315889.08291448036,-644.117431640625,-1210.0833740234375,-1069.76953125,-1115.448486328125,-1048.6783447265625,-652.1964721679688,-1245.63037109375,-1456.3388671875
315889.0869144803,-634.77685546875,-1200.5609130859375,-1059.8299560546875,-1105.7791748046875,-1039.7550048828125,-643.7597045898438,-1235.6348876953125,-1446.98193359375
315889.09091448033,-633.406982421875,-1200.0098876953125,-1059.1285400390625,-1105.188720703125,-1038.2652587890625,-641.6423950195312,-1235.319091796875,-1446.221435546875
315889.09491448035,-643.8256225585938,-1211.027587890625,-1070.6053466796875,-1116.3193359375,-1048.205322265625,-650.6931762695312,-1247.04931640625,-1457.0242919921875
315889.09891448036,-649.635986328125,-1216.524169921875,-1076.2918701171875,-1121.8524169921875,-1054.0540771484375,-656.6868896484375,-1252.5108642578125,-1462.67529296875
315889.1029144803,-644.6849365234375,-1210.9246826171875,-1070.514892578125,-1116.1343994140625,-1049.4202880859375,-652.6775512695312,-1246.4697265625,-1457.320556640625
315889.10691448033,-634.7384033203125,-1200.618408203125,-1059.85791015625,-1105.76171875,-1039.8280029296875,-643.6622924804688,-1235.704345703125,-1447.0887451171875
315889.11091448035,-633.2910766601562,-1199.907958984375,-1059.0665283203125,-1105.1002197265625,-1038.248779296875,-641.5704345703125,-1235.22216796875,-1446.11962890625
315889.11491448036,-643.104248046875,-1210.3701171875,-1069.96533203125,-1115.6463623046875,-1047.580322265625,-650.0271606445312,-1246.309326171875,-1456.3748779296875
315889.1189144803,-649.0145263671875,-1215.986572265625,-1075.7607421875,-1121.3023681640625,-1053.5250244140625,-656.0818481445312,-1251.8973388671875,-1462.09423828125
315889.12291448034,-644.6974487304688,-1211.073486328125,-1070.6907958984375,-1116.3482666015625,-1049.609130859375,-652.7764892578125,-1246.525146484375,-1457.39453125
315889.12691448035,-634.830810546875,-1201.0615234375,-1060.231201171875,-1106.159912109375,-1040.2196044921875,-643.8111572265625,-1235.9915771484375,-1447.514404296875
315889.1309144803,-633.2041625976562,-1200.0657958984375,-1059.135986328125,-1105.126220703125,-1038.3201904296875,-641.4310913085938,-1235.2261962890625,-1446.2080078125
315889.1349144803,-643.0767211914062,-1210.3790283203125,-1069.9473876953125,-1115.58544921875,-1047.5462646484375,-649.893310546875,-1246.2169189453125,-1456.2564697265625
315889.13891448034,-649.2453002929688,-1216.1004638671875,-1075.877685546875,-1121.4127197265625,-1053.6234130859375,-656.1572875976562,-1251.9598388671875,-1462.0977783203125
315889.14291448036,-644.75439453125,-1210.8941650390625,-1070.537353515625,-1116.223388671875,-1049.413818359375,-652.6340942382812,-1246.4117431640625,-1457.1502685546875
315889.1469144803,-634.77587890625,-1200.684326171875,-1059.90087890625,-1105.8626708984375,-1039.8624267578125,-643.600341796875,-1235.73486328125,-1447.062255859375
315889.1509144803,-633.3390502929688,-1199.9439697265625,-1059.067138671875,-1105.1422119140625,-1038.248779296875,-641.5150146484375,-1235.1722412109375,-1446.070556640625
315889.1549144803,-643.6102905273438,-1210.7303466796875,-1070.3585205078125,-1116.1668701171875,-1047.9774169921875,-650.455322265625,-1246.6666259765625,-1456.671630859375
315889.1589144803,-649.4386596679688,-1216.199951171875,-1076.0474853515625,-1121.6884765625,-1053.7728271484375,-656.3865966796875,-1252.2271728515625,-1462.3271484375
315889.1629144803,-645.2984619140625,-1211.4757080078125,-1071.14794921875,-1116.932861328125,-1050.07275390625,-653.3115844726562,-1247.0892333984375,-1457.8292236328125
315889.16691448033,-636.0068969726562,-1202.0926513671875,-1061.3043212890625,-1107.4444580078125,-1041.3616943359375,-645.0371704101562,-1237.1842041015625,-1448.592041015625
315889.17091448035,-634.8862915039062,-1201.8349609375,-1060.8526611328125,-1106.9852294921875,-1040.0787353515625,-643.041748046875,-1237.13623046875,-1448.1474609375
315889.1749144803,-644.6964721679688,-1212.126220703125,-1071.64501953125,-1117.4259033203125,-1049.2724609375,-651.487548828125,-1248.1004638671875,-1458.1859130859375
315889.1789144803,-649.9347534179688,-1216.8414306640625,-1076.6365966796875,-1122.2730712890625,-1054.42529296875,-656.8892211914062,-1252.8851318359375,-1462.9990234375
315889.18291448033,-645.0097045898438,-1211.1300048828125,-1070.7872314453125,-1116.5361328125,-1049.748046875,-652.888916015625,-1246.8189697265625,-1457.469970703125
315889.18691448035,-635.7686157226562,-1201.804931640625,-1060.944091796875,-1107.0028076171875,-1041.0020751953125,-644.6430053710938,-1236.8779296875,-1448.2593994140625
315889.1909144803,-634.118896484375,-1200.9490966796875,-1059.9569091796875,-1106.1224365234375,-1039.2044677734375,-642.2993774414062,-1236.198486328125,-1447.1702880859375
315889.1949144803,-644.0444946289062,-1211.372314453125,-1070.901611328125,-1116.7060546875,-1048.5594482421875,-650.8365478515625,-1247.3385009765625,-1457.3651123046875
315889.19891448034,-650.1386108398438,-1217.1412353515625,-1076.8658447265625,-1122.4554443359375,-1054.6666259765625,-657.0580444335938,-1253.1573486328125,-1463.2947998046875
315889.20291448035,-645.1935424804688,-1211.57861328125,-1071.126953125,-1116.847412109375,-1050.080810546875,-653.1141967773438,-1247.1881103515625,-1457.97802734375
315889.2069144803,-635.3124389648438,-1201.513671875,-1060.58740234375,-1106.6025390625,-1040.6148681640625,-644.095947265625,-1236.6370849609375,-1448.052001953125
315889.2109144803,-634.0394897460938,-1200.966552734375,-1059.930908203125,-1106.0400390625,-1039.1600341796875,-642.1199951171875,-1236.31787109375,-1447.2896728515625
315889.21491448034,-644.1633911132812,-1211.6810302734375,-1071.1763916015625,-1116.9073486328125,-1048.8282470703125,-650.9779052734375,-1247.689208984375,-1457.770263671875
315889.21891448036,-649.8338623046875,-1216.9908447265625,-1076.718505859375,-1122.2855224609375,-1054.5152587890625,-656.8357543945312,-1252.9580078125,-1463.1763916015625
315889.2229144803,-644.9032592773438,-1211.2508544921875,-1070.8511962890625,-1116.53466796875,-1049.780029296875,-652.8334350585938,-1246.8089599609375,-1457.6043701171875
315889.2269144803,-635.4728393554688,-1201.5386962890625,-1060.6783447265625,-1106.6920166015625,-1040.7127685546875,-644.3382568359375,-1236.5921630859375,-1448.0040283203125
315889.23091448034,-634.227294921875,-1200.856201171875,-1059.932373046875,-1106.0369873046875,-1039.18701171875,-642.3743286132812,-1236.1424560546875,-1447.04931640625
315889.23491448036,-644.0454711914062,-1211.14892578125,-1070.7532958984375,-1116.4256591796875,-1048.39208984375,-650.7840576171875,-1247.1531982421875,-1457.103271484375
315889.2389144803,-650.4033813476562,-1217.1236572265625,-1076.9388427734375,-1122.4683837890625,-1054.7559814453125,-657.3008422851562,-1253.1348876953125,-1463.19091796875
315889.24291448033,-645.4793090820312,-1211.51220703125,-1071.1739501953125,-1116.8843994140625,-1050.2001953125,-653.4429321289062,-1247.081787109375,-1457.7652587890625
315889.24691448035,-636.3221435546875,-1202.2205810546875,-1061.3572998046875,-1107.472412109375,-1041.5531005859375,-645.2659912109375,-1237.2711181640625,-1448.6160888671875
315889.2509144803,-634.8792724609375,-1201.416748046875,-1060.4375,-1106.635498046875,-1039.8319091796875,-643.061279296875,-1236.739501953125,-1447.5699462890625
315889.2549144803,-644.6979370117188,-1211.695556640625,-1071.265380859375,-1117.1131591796875,-1049.0296630859375,-651.5150146484375,-1247.689208984375,-1457.600341796875
315889.25891448034,-650.4133911132812,-1217.1207275390625,-1076.9097900390625,-1122.5872802734375,-1054.8055419921875,-657.3313598632812,-1253.1458740234375,-1463.1973876953125
315889.26291448035,-645.55224609375,-1211.718994140625,-1071.2818603515625,-1116.998779296875,-1050.3450927734375,-653.41796875,-1247.321044921875,-1458.0364990234375
315889.2669144803,-636.229248046875,-1202.2066650390625,-1061.268310546875,-1107.3480224609375,-1041.45068359375,-645.0511474609375,-1237.2816162109375,-1448.6165771484375
315889.2709144803,-634.4761352539062,-1201.0794677734375,-1060.0743408203125,-1106.2183837890625,-1039.3863525390625,-642.4672241210938,-1236.4656982421875,-1447.3035888671875
315889.2749144803,-644.3941650390625,-1211.4407958984375,-1071.0230712890625,-1116.79345703125,-1048.6744384765625,-650.9339599609375,-1247.644287109375,-1457.4625244140625
315889.2789144803,-649.9617309570312,-1216.81298828125,-1076.5421142578125,-1122.205078125,-1054.3818359375,-656.7418212890625,-1252.988037109375,-1462.97802734375
315889.2829144803,-645.6116943359375,-1212.0162353515625,-1071.4976806640625,-1117.3365478515625,-1050.514404296875,-653.4429321289062,-1247.7161865234375,-1458.441162109375
315889.2869144803,-636.9031982421875,-1203.2423095703125,-1062.1995849609375,-1108.4056396484375,-1042.2760009765625,-645.6651611328125,-1238.441650390625,-1449.8955078125
315889.2909144803,-635.8240356445312,-1202.89501953125,-1061.7779541015625,-1108.0284423828125,-1040.9739990234375,-643.8191528320312,-1238.4151611328125,-1449.406982421875
315889.2949144803,-645.3494262695312,-1212.89111328125,-1072.3485107421875,-1118.141845703125,-1049.8958740234375,-651.9556274414062,-1249.0926513671875,-1459.1231689453125
315889.2989144803,-650.5067749023438,-1217.6297607421875,-1077.2945556640625,-1122.9425048828125,-1055.036865234375,-657.3133544921875,-1253.7794189453125,-1463.92236328125
315889.30291448033,-646.3091430664062,-1212.841064453125,-1072.3065185546875,-1118.1103515625,-1051.2623291015625,-654.162353515625,-1248.5675048828125,-1459.3814697265625
315889.3069144803,-637.2888793945312,-1203.700439453125,-1062.6632080078125,-1108.8812255859375,-1042.799560546875,-646.1852416992188,-1238.894775390625,-1450.3961181640625
315889.3109144803,-635.9134521484375,-1203.074951171875,-1061.9647216796875,-1108.2342529296875,-1041.3017578125,-644.117431640625,-1238.4991455078125,-1449.5123291015625
315889.3149144803,-645.841552734375,-1213.483154296875,-1072.9630126953125,-1118.787841796875,-1050.6263427734375,-652.5961303710938,-1249.6181640625,-1459.6827392578125
315889.31891448033,-651.5164794921875,-1218.8157958984375,-1078.5145263671875,-1124.131103515625,-1056.32373046875,-658.4005126953125,-1254.982421875,-1465.17578125
315889.3229144803,-647.01611328125,-1213.7589111328125,-1073.251708984375,-1119.0186767578125,-1052.2960205078125,-655.0261840820312,-1249.4013671875,-1460.3306884765625
315889.3269144803,-637.1384887695312,-1203.7838134765625,-1062.72119140625,-1108.86376953125,-1042.949462890625,-646.1957397460938,-1238.8472900390625,-1450.4896240234375
315889.3309144803,-635.4353637695312,-1202.688232421875,-1061.5595703125,-1107.81005859375,-1040.9381103515625,-643.67529296875,-1238.0809326171875,-1449.126708984375
315889.33491448034,-645.4408569335938,-1213.0164794921875,-1072.505859375,-1118.36572265625,-1050.13720703125,-652.037109375,-1249.215576171875,-1459.2275390625
315889.3389144803,-651.1072998046875,-1218.1778564453125,-1077.89453125,-1123.573974609375,-1055.641845703125,-657.7350463867188,-1254.42041015625,-1464.495849609375
315889.3429144803,-646.3336181640625,-1212.7796630859375,-1072.2685546875,-1118.139404296875,-1051.225830078125,-654.0464477539062,-1248.5645751953125,-1459.321044921875
315889.3469144803,-636.4819946289062,-1202.8211669921875,-1061.7564697265625,-1108.0494384765625,-1041.9222412109375,-645.2420043945312,-1238.0594482421875,-1449.492431640625
315889.35091448034,-635.1345825195312,-1202.0596923828125,-1060.900146484375,-1107.2640380859375,-1040.235107421875,-643.0752563476562,-1237.5623779296875,-1448.4996337890625
315889.3549144803,-644.9937133789062,-1212.24853515625,-1071.7249755859375,-1117.67822265625,-1049.3358154296875,-651.4225463867188,-1248.527099609375,-1458.4122314453125
315889.3589144803,-651.295166015625,-1218.1923828125,-1077.9150390625,-1123.678466796875,-1055.6268310546875,-657.8439331054688,-1254.5087890625,-1464.4599609375
315889.3629144803,-646.6633911132812,-1213.032470703125,-1072.5133056640625,-1118.4166259765625,-1051.4696044921875,-654.291259765625,-1248.870849609375,-1459.5908203125
315889.36691448034,-636.315673828125,-1202.515380859375,-1061.461181640625,-1107.6971435546875,-1041.6265869140625,-644.9761962890625,-1237.826171875,-1449.2611083984375
315889.3709144803,-634.5140991210938,-1201.3382568359375,-1060.19921875,-1106.5321044921875,-1039.546142578125,-642.4232788085938,-1236.889404296875,-1447.859130859375
315889.3749144803,-644.656005859375,-1211.9677734375,-1071.3917236328125,-1117.20458984375,-1048.94921875,-650.907470703125,-1248.2633056640625,-1458.232421875
315889.37891448033,-650.810546875,-1217.6387939453125,-1077.3779296875,-1122.97900390625,-1055.020263671875,-657.18798828125,-1254.065673828125,-1463.9847412109375
315889.38291448035,-645.6981201171875,-1211.8743896484375,-1071.377197265625,-1117.105224609375,-1050.33251953125,-653.267578125,-1247.7581787109375,-1458.42919921875
315889.3869144803,-635.33642578125,-1201.30029296875,-1060.267578125,-1106.3931884765625,-1040.5059814453125,-644.0684814453125,-1236.523193359375,-1447.920166015625
315889.3909144803,-633.2725830078125,-1199.9473876953125,-1058.810791015625,-1105.04736328125,-1038.2457275390625,-641.2672119140625,-1235.3780517578125,-1446.307861328125
315889.39491448033,-643.9330444335938,-1211.08447265625,-1070.5523681640625,-1116.3577880859375,-1048.204833984375,-650.3743896484375,-1247.255615234375,-1457.1302490234375
315889.39891448035,-650.29296875,-1217.0347900390625,-1076.7724609375,-1122.37744140625,-1054.5396728515625,-656.897216796875,-1253.2158203125,-1463.0999755859375
315889.4029144803,-645.4563598632812,-1211.674072265625,-1071.138427734375,-1116.910888671875,-1050.2471923828125,-653.298583984375,-1247.318603515625,-1457.966064453125
315889.4069144803,-635.605224609375,-1201.72998046875,-1060.5848388671875,-1106.8094482421875,-1040.9395751953125,-644.5515747070312,-1236.7464599609375,-1448.1878662109375
315889.41091448034,-633.4154663085938,-1200.0433349609375,-1058.88671875,-1105.1982421875,-1038.2791748046875,-641.4525146484375,-1235.43505859375,-1446.240478515625
315889.41491448035,-644.0824584960938,-1211.115966796875,-1070.6138916015625,-1116.4886474609375,-1048.143310546875,-650.4253540039062,-1247.3385009765625,-1457.0443115234375
315889.41891448037,-650.765625,-1217.4833984375,-1077.20654296875,-1122.9229736328125,-1054.853515625,-657.1944580078125,-1253.7298583984375,-1463.570068359375
315889.4229144803,-646.2482299804688,-1212.407958984375,-1071.8853759765625,-1117.7042236328125,-1050.84765625,-653.9000854492188,-1248.1654052734375,-1458.79345703125
315889.42691448034,-636.2286987304688,-1202.13916015625,-1061.1083984375,-1107.301025390625,-1041.29833984375,-644.9817504882812,-1237.3714599609375,-1448.6934814453125
315889.43091448036,-634.1473999023438,-1200.641845703125,-1059.5806884765625,-1105.8516845703125,-1038.8511962890625,-642.0725708007812,-1236.135009765625,-1446.91845703125
315889.4349144804,-645.0621337890625,-1212.0052490234375,-1071.5616455078125,-1117.364501953125,-1048.97314453125,-651.2691650390625,-1248.27978515625,-1458.0150146484375
315889.4389144803,-651.2242431640625,-1217.7796630859375,-1077.5533447265625,-1123.2242431640625,-1055.1522216796875,-657.6361083984375,-1254.047607421875,-1463.8873291015625
315889.44291448034,-646.4210815429688,-1212.37548828125,-1071.892333984375,-1117.8040771484375,-1050.8751220703125,-654.1039428710938,-1248.0869140625,-1458.68798828125
315889.44691448036,-635.9249877929688,-1201.8414306640625,-1060.763671875,-1106.9857177734375,-1040.9810791015625,-644.679443359375,-1236.912353515625,-1448.3367919921875
315889.4509144804,-634.2493286132812,-1200.876708984375,-1059.68603515625,-1105.93359375,-1038.985595703125,-642.1190185546875,-1236.2039794921875,-1447.078857421875
315889.45491448033,-645.03369140625,-1212.107666015625,-1071.571533203125,-1117.3580322265625,-1048.959228515625,-651.1687622070312,-1248.2772216796875,-1458.0570068359375
315889.45891448035,-651.6259155273438,-1218.2442626953125,-1078.0054931640625,-1123.6339111328125,-1055.515869140625,-657.92236328125,-1254.478759765625,-1464.3115234375
315889.46291448036,-646.6254272460938,-1212.6378173828125,-1072.1910400390625,-1117.9739990234375,-1051.064453125,-654.2123413085938,-1248.3497314453125,-1458.94287109375
315889.4669144804,-636.1047973632812,-1202.065185546875,-1061.0345458984375,-1107.1866455078125,-1041.2408447265625,-644.9072875976562,-1237.13623046875,-1448.55810546875
315889.47091448033,-634.55908203125,-1201.2393798828125,-1060.1187744140625,-1106.3612060546875,-1039.4267578125,-642.5177001953125,-1236.5701904296875,-1447.469970703125
315889.47491448035,-645.4718017578125,-1212.6812744140625,-1072.18505859375,-1118.031494140625,-1049.6151123046875,-651.7667846679688,-1248.851806640625,-1458.656982421875
315889.47891448037,-651.9791259765625,-1218.83984375,-1078.5555419921875,-1124.2005615234375,-1056.1983642578125,-658.4229736328125,-1255.0648193359375,-1464.9814453125
315889.4829144804,-646.9386596679688,-1213.1553955078125,-1072.6436767578125,-1118.3951416015625,-1051.71142578125,-654.613525390625,-1248.874267578125,-1459.55029296875
315889.48691448034,-635.9703979492188,-1202.02978515625,-1060.966552734375,-1107.152099609375,-1041.417724609375,-644.9302368164062,-1237.126220703125,-1448.5771484375
315889.49091448035,-633.7871704101562,-1200.577880859375,-1059.392333984375,-1105.71533203125,-1038.92724609375,-641.8612060546875,-1235.9591064453125,-1446.8939208984375
315889.49491448037,-644.8238525390625,-1212.0997314453125,-1071.546142578125,-1117.4373779296875,-1049.123046875,-651.0858154296875,-1248.353759765625,-1458.204345703125
315889.4989144803,-651.573974609375,-1218.3411865234375,-1078.0589599609375,-1123.8363037109375,-1055.8192138671875,-658.03076171875,-1254.63720703125,-1464.55078125
315889.50291448034,-646.6458740234375,-1212.6058349609375,-1072.1336669921875,-1118.0838623046875,-1051.3187255859375,-654.41015625,-1248.420166015625,-1459.0172119140625
315889.5069144803,-635.2239990234375,-1200.9791259765625,-1059.9478759765625,-1106.23681640625,-1040.448486328125,-644.1708984375,-1236.1875,-1447.574951171875
315889.5109144803,-633.2186279296875,-1199.74853515625,-1058.5980224609375,-1104.9158935546875,-1038.1168212890625,-641.2212524414062,-1235.2562255859375,-1446.1805419921875
315889.5149144803,-644.1204223632812,-1211.180908203125,-1070.65087890625,-1116.5545654296875,-1048.2347412109375,-650.3713989257812,-1247.4993896484375,-1457.3326416015625
315889.51891448034,-650.1276245117188,-1216.9053955078125,-1076.5745849609375,-1122.2445068359375,-1054.3319091796875,-656.5724487304688,-1253.185302734375,-1463.193359375
315889.5229144803,-644.7908935546875,-1210.88720703125,-1070.361083984375,-1116.181884765625,-1049.5162353515625,-652.5316772460938,-1246.72607421875,-1457.4630126953125
315889.5269144803,-633.8900756835938,-1199.7685546875,-1058.746337890625,-1104.9168701171875,-1039.1915283203125,-642.8404541015625,-1235.0982666015625,-1446.5802001953125
315889.53091448033,-631.6528930664062,-1198.2952880859375,-1057.15966796875,-1103.443115234375,-1036.6719970703125,-639.7039184570312,-1233.8883056640625,-1444.9124755859375
315889.53491448035,-642.5206909179688,-1209.8184814453125,-1069.27294921875,-1115.125732421875,-1046.825927734375,-648.7017211914062,-1246.219970703125,-1456.198486328125
315889.5389144803,-649.3397216796875,-1216.3193359375,-1076.0130615234375,-1121.6156005859375,-1053.69091796875,-655.6317138671875,-1252.773193359375,-1462.8216552734375
315889.5429144803,-644.08544921875,-1210.4400634765625,-1069.9449462890625,-1115.6998291015625,-1048.9757080078125,-651.6758422851562,-1246.478759765625,-1457.33056640625
315889.54691448034,-633.125732421875,-1199.1605224609375,-1058.2027587890625,-1104.393798828125,-1038.5555419921875,-641.9826049804688,-1234.6136474609375,-1446.1650390625
315889.55091448035,-630.7236328125,-1197.330078125,-1056.3138427734375,-1102.5762939453125,-1035.697265625,-638.645263671875,-1233.0069580078125,-1443.9713134765625
315889.5549144803,-641.8172607421875,-1208.9427490234375,-1068.4844970703125,-1114.4178466796875,-1045.943115234375,-647.953369140625,-1245.3245849609375,-1455.1903076171875
315889.5589144803,-648.6927490234375,-1215.41650390625,-1075.1846923828125,-1120.9271240234375,-1052.8031005859375,-655.0081787109375,-1251.7449951171875,-1461.7021484375
315889.56291448034,-643.8740844726562,-1209.8779296875,-1069.4097900390625,-1115.2037353515625,-1048.4945068359375,-651.4935302734375,-1245.62744140625,-1456.367431640625
315889.56691448035,-633.2925415039062,-1199.0416259765625,-1058.06787109375,-1104.2674560546875,-1038.54052734375,-642.2349243164062,-1234.2110595703125,-1445.69091796875
315889.5709144803,-631.1328125,-1197.6087646484375,-1056.523681640625,-1102.9100341796875,-1036.072998046875,-639.1798706054688,-1233.0574951171875,-1443.96875
315889.5749144803,-642.6450805664062,-1209.7401123046875,-1069.220458984375,-1115.2076416015625,-1046.7034912109375,-648.69921875,-1246.03759765625,-1455.8492431640625
315889.57891448034,-649.8997802734375,-1216.695068359375,-1076.419677734375,-1122.2515869140625,-1053.99609375,-656.0723266601562,-1253.094970703125,-1463.027587890625
315889.58291448036,-645.0296630859375,-1211.2049560546875,-1070.7042236328125,-1116.7125244140625,-1049.7840576171875,-652.6610717773438,-1247.1422119140625,-1457.8846435546875
315889.5869144803,-633.6912231445312,-1199.7196044921875,-1058.639892578125,-1105.016845703125,-1039.14306640625,-642.6835327148438,-1235.015380859375,-1446.5986328125
315889.59091448033,-631.2606811523438,-1198.0389404296875,-1056.8243408203125,-1103.2642822265625,-1036.3167724609375,-639.246826171875,-1233.5770263671875,-1444.644287109375
315889.59491448035,-642.4093017578125,-1209.76953125,-1069.16796875,-1115.167724609375,-1046.549560546875,-648.4019775390625,-1246.2183837890625,-1456.0606689453125
315889.59891448036,-650.14111328125,-1217.0032958984375,-1076.68603515625,-1122.5048828125,-1054.1650390625,-656.1397705078125,-1253.592041015625,-1463.4232177734375
315889.6029144804,-645.5313110351562,-1211.5850830078125,-1071.1104736328125,-1117.11865234375,-1050.1082763671875,-653.0147705078125,-1247.6593017578125,-1458.2742919921875
315889.60691448033,-634.721923828125,-1200.6583251953125,-1059.630615234375,-1105.9725341796875,-1040.0753173828125,-643.6682739257812,-1236.0135498046875,-1447.4859619140625
315889.61091448035,-632.5691528320312,-1199.3939208984375,-1058.184326171875,-1104.540283203125,-1037.668212890625,-640.55126953125,-1234.927978515625,-1445.9317626953125
315889.61491448036,-644.1683959960938,-1211.7254638671875,-1071.0489501953125,-1116.9892578125,-1048.47900390625,-650.173583984375,-1247.9720458984375,-1457.9576416015625
315889.6189144804,-651.52197265625,-1218.7403564453125,-1078.32568359375,-1124.0391845703125,-1055.837158203125,-657.6480712890625,-1255.0438232421875,-1465.1383056640625
315889.62291448034,-646.6058959960938,-1213.034423828125,-1072.455322265625,-1118.2862548828125,-1051.4656982421875,-654.2028198242188,-1248.849853515625,-1459.691162109375
315889.62691448035,-635.8020629882812,-1201.953857421875,-1060.86962890625,-1107.085693359375,-1041.3377685546875,-644.8378295898438,-1237.1851806640625,-1448.7679443359375
315889.63091448037,-633.8366088867188,-1200.8626708984375,-1059.6171875,-1105.9295654296875,-1039.099609375,-641.8677368164062,-1236.3203125,-1447.43798828125
315889.6349144804,-645.0496826171875,-1212.7706298828125,-1072.0711669921875,-1117.9334716796875,-1049.4718017578125,-651.0548706054688,-1249.01123046875,-1459.019775390625
315889.63891448034,-651.5799560546875,-1218.8887939453125,-1078.4520263671875,-1124.109619140625,-1056.011474609375,-657.7744750976562,-1255.166259765625,-1465.2392578125
315889.64291448036,-646.2222290039062,-1212.730712890625,-1072.1201171875,-1117.87158203125,-1051.2208251953125,-653.9280395507812,-1248.506591796875,-1459.3404541015625
315889.64691448037,-635.5732421875,-1201.7750244140625,-1060.67724609375,-1106.7593994140625,-1041.19482421875,-644.6714477539062,-1236.9302978515625,-1448.592041015625
315889.6509144804,-633.2855834960938,-1200.3975830078125,-1059.1300048828125,-1105.33203125,-1038.6248779296875,-641.382080078125,-1235.771240234375,-1446.98388671875
315889.65491448034,-644.9022827148438,-1212.9415283203125,-1072.1480712890625,-1117.89306640625,-1049.520263671875,-650.8914794921875,-1249.123046875,-1459.322509765625
315889.65891448036,-652.3203735351562,-1219.8905029296875,-1079.40283203125,-1124.96484375,-1056.9063720703125,-658.4354858398438,-1256.1839599609375,-1466.42431640625
315889.6629144804,-647.5841674804688,-1214.27197265625,-1073.626953125,-1119.318359375,-1052.69873046875,-655.2550048828125,-1250.0738525390625,-1461.046142578125
315889.6669144804,-635.8894653320312,-1202.1356201171875,-1061.008544921875,-1107.042724609375,-1041.4766845703125,-644.9002685546875,-1237.37451171875,-1449.0751953125
315889.67091448035,-633.1666870117188,-1200.1072998046875,-1058.8677978515625,-1105.0452880859375,-1038.30224609375,-641.0768432617188,-1235.6478271484375,-1446.7840576171875
315889.67491448036,-644.7698974609375,-1212.514404296875,-1071.782470703125,-1117.580810546875,-1049.146484375,-650.6411743164062,-1248.8118896484375,-1458.849365234375
315889.6789144804,-652.3688354492188,-1219.8914794921875,-1079.3887939453125,-1125.058349609375,-1056.90185546875,-658.4439697265625,-1256.2388916015625,-1466.42333984375
315889.6829144804,-647.79296875,-1214.7470703125,-1074.06005859375,-1119.9273681640625,-1053.13330078125,-655.4993286132812,-1250.6334228515625,-1461.691650390625
315889.68691448035,-636.9366455078125,-1203.703369140625,-1062.50634765625,-1108.7838134765625,-1043.056884765625,-646.1497802734375,-1239.0076904296875,-1450.8642578125
315889.69091448036,-634.699462890625,-1202.365478515625,-1061.008056640625,-1107.4478759765625,-1040.5399169921875,-642.8659057617188,-1237.8870849609375,-1449.2430419921875
315889.6949144804,-645.765625,-1214.195068359375,-1073.3861083984375,-1119.42333984375,-1050.770263671875,-651.8207397460938,-1250.458984375,-1460.7738037109375
315889.6989144804,-653.191162109375,-1221.2493896484375,-1080.6712646484375,-1126.4962158203125,-1058.1798095703125,-659.36572265625,-1257.5623779296875,-1467.9581298828125
315889.7029144804,-648.2386474609375,-1215.37158203125,-1074.6910400390625,-1120.6783447265625,-1053.7303466796875,-655.9229736328125,-1251.3218994140625,-1462.360107421875
315889.70691448037,-636.7352905273438,-1203.43212890625,-1062.3134765625,-1108.6868896484375,-1042.7821044921875,-645.8695068359375,-1238.8448486328125,-1450.6109619140625
315889.7109144804,-633.8271484375,-1201.232421875,-1059.976318359375,-1106.4456787109375,-1039.437255859375,-641.9091796875,-1236.8399658203125,-1448.08349609375
315889.7149144804,-645.2664794921875,-1213.444091796875,-1072.6982421875,-1118.7493896484375,-1050.0457763671875,-651.220703125,-1249.80908203125,-1459.9345703125
315889.7189144804,-652.9373779296875,-1220.8082275390625,-1080.3331298828125,-1126.21240234375,-1057.8150634765625,-659.0774536132812,-1257.24560546875,-1467.4420166015625
315889.7229144804,-647.9178466796875,-1215.0244140625,-1074.3743896484375,-1120.4019775390625,-1053.4500732421875,-655.6821899414062,-1250.97412109375,-1461.995361328125
315889.7269144804,-635.8245239257812,-1202.515380859375,-1061.375732421875,-1107.7421875,-1041.90380859375,-645.0177001953125,-1237.85107421875,-1449.6507568359375
315889.7309144804,-633.1746826171875,-1200.6263427734375,-1059.3328857421875,-1105.78173828125,-1038.832275390625,-641.2487182617188,-1236.1319580078125,-1447.45703125
315889.7349144804,-644.5401000976562,-1212.67919921875,-1071.92333984375,-1117.9075927734375,-1049.3004150390625,-650.4408569335938,-1248.934814453125,-1459.1136474609375
315889.7389144804,-651.6034545898438,-1219.238525390625,-1078.764892578125,-1124.53076171875,-1056.288818359375,-657.6825561523438,-1255.5914306640625,-1465.7413330078125
315889.7429144804,-646.4655151367188,-1213.1318359375,-1072.54736328125,-1118.466064453125,-1051.62548828125,-654.1239013671875,-1249.12255859375,-1459.970458984375
315889.7469144804,-634.6394653320312,-1200.97216796875,-1059.853515625,-1106.125,-1040.4339599609375,-643.7562255859375,-1236.3468017578125,-1447.984619140625
315889.7509144804,-632.1505126953125,-1199.2650146484375,-1057.9840087890625,-1104.3099365234375,-1037.552734375,-640.1775512695312,-1234.8399658203125,-1445.936767578125
315889.7549144804,-643.8456420898438,-1211.5921630859375,-1070.9161376953125,-1116.824951171875,-1048.273681640625,-649.5900268554688,-1248.0570068359375,-1457.93115234375
315889.7589144804,-651.3116455078125,-1218.64892578125,-1078.259765625,-1123.981689453125,-1055.7412109375,-657.2579345703125,-1255.1273193359375,-1465.0833740234375
315889.7629144804,-646.014404296875,-1212.517333984375,-1071.998291015625,-1117.8026123046875,-1051.0264892578125,-653.6268310546875,-1248.5421142578125,-1459.256103515625
315889.7669144804,-634.2407836914062,-1200.5379638671875,-1059.4713134765625,-1105.5953369140625,-1040.0223388671875,-643.4010009765625,-1235.888671875,-1447.4510498046875
315889.7709144804,-631.52197265625,-1198.7783203125,-1057.5028076171875,-1103.725830078125,-1037.05419921875,-639.6069946289062,-1234.2540283203125,-1445.4036865234375
315889.7749144804,-643.0817260742188,-1211.1629638671875,-1070.41650390625,-1116.1964111328125,-1047.777587890625,-648.91455078125,-1247.409912109375,-1457.4949951171875
315889.7789144804,-651.0603637695312,-1218.7314453125,-1078.295166015625,-1123.9346923828125,-1055.8087158203125,-657.069580078125,-1255.0968017578125,-1465.225341796875
315889.7829144804,-646.101806640625,-1212.8956298828125,-1072.31494140625,-1118.075439453125,-1051.419677734375,-653.7791748046875,-1248.8592529296875,-1459.7261962890625
315889.7869144804,-634.0809326171875,-1200.5294189453125,-1059.435791015625,-1105.553955078125,-1040.04833984375,-643.3165283203125,-1235.8931884765625,-1447.54296875
315889.7909144804,-631.5484619140625,-1198.9957275390625,-1057.667236328125,-1103.8892822265625,-1037.2425537109375,-639.6879272460938,-1234.5013427734375,-1445.744873046875
315889.7949144804,-643.5888061523438,-1211.8553466796875,-1071.0579833984375,-1116.8953857421875,-1048.421142578125,-649.4976196289062,-1248.1898193359375,-1458.3248291015625
315889.79891448043,-651.6683959960938,-1219.650634765625,-1079.1025390625,-1124.7420654296875,-1056.611083984375,-657.739501953125,-1256.0875244140625,-1466.347412109375
315889.80291448045,-647.0031127929688,-1214.35986328125,-1073.5875244140625,-1119.27490234375,-1052.668701171875,-654.7518920898438,-1250.2781982421875,-1461.46728515625
315889.8069144804,-635.20654296875,-1202.0792236328125,-1060.8311767578125,-1106.921875,-1041.42919921875,-644.5076293945312,-1237.409423828125,-1449.3265380859375
315889.8109144804,-632.7564697265625,-1200.296142578125,-1058.9141845703125,-1105.104248046875,-1038.4405517578125,-640.8030395507812,-1235.865234375,-1447.1641845703125
315889.81491448043,-644.3897094726562,-1212.647216796875,-1071.827880859375,-1117.6507568359375,-1049.112060546875,-650.1080932617188,-1249.0406494140625,-1459.172607421875
315889.81891448045,-652.1849365234375,-1219.984375,-1079.454833984375,-1125.1502685546875,-1056.8739013671875,-658.0732421875,-1256.4556884765625,-1466.672607421875
315889.8229144804,-646.7647705078125,-1213.700439453125,-1073.0308837890625,-1118.875732421875,-1052.1041259765625,-654.4331665039062,-1249.671630859375,-1460.702880859375
315889.8269144804,-634.937744140625,-1201.4552001953125,-1060.287109375,-1106.4571533203125,-1040.9195556640625,-644.1918334960938,-1236.8564453125,-1448.62109375
315889.83091448044,-632.2139282226562,-1199.521728515625,-1058.2032470703125,-1104.4962158203125,-1037.779052734375,-640.2969970703125,-1235.15283203125,-1446.348876953125
315889.83491448045,-644.4151611328125,-1212.5423583984375,-1071.7774658203125,-1117.6842041015625,-1049.090087890625,-650.1725463867188,-1248.937744140625,-1459.05517578125
315889.8389144804,-651.8067626953125,-1219.5777587890625,-1079.091064453125,-1124.8179931640625,-1056.5220947265625,-657.7869873046875,-1256.008544921875,-1466.2569580078125
315889.8429144804,-646.607421875,-1213.5975341796875,-1072.9320068359375,-1118.788818359375,-1052.0042724609375,-654.34423828125,-1249.582763671875,-1460.616455078125
315889.84691448044,-635.4088745117188,-1202.342041015625,-1061.083984375,-1107.2974853515625,-1041.6739501953125,-644.7349243164062,-1237.7056884765625,-1449.624267578125
315889.85091448046,-632.739013671875,-1200.65087890625,-1059.2354736328125,-1105.5313720703125,-1038.6988525390625,-640.8775024414062,-1236.21142578125,-1447.654296875
315889.8549144804,-644.99169921875,-1213.7908935546875,-1072.9200439453125,-1118.808349609375,-1050.0858154296875,-650.7835693359375,-1250.15625,-1460.4765625
315889.8589144804,-652.9038696289062,-1221.547607421875,-1080.88916015625,-1126.4976806640625,-1058.1588134765625,-658.8361206054688,-1257.947509765625,-1468.40380859375
315889.86291448044,-647.804443359375,-1215.810791015625,-1074.8948974609375,-1120.598388671875,-1053.876220703125,-655.5492553710938,-1251.68603515625,-1462.9910888671875
315889.86691448046,-636.2112426757812,-1203.86474609375,-1062.431396484375,-1108.4820556640625,-1043.0289306640625,-645.668701171875,-1239.080078125,-1451.178466796875
315889.8709144804,-632.8424072265625,-1201.2923583984375,-1059.7255859375,-1105.9071044921875,-1039.285400390625,-641.1747436523438,-1236.696533203125,-1448.2943115234375
315889.87491448043,-644.722412109375,-1213.8782958984375,-1072.8660888671875,-1118.64599609375,-1050.1307373046875,-650.6162109375,-1250.0933837890625,-1460.593994140625
315889.87891448045,-652.177978515625,-1220.6649169921875,-1080.0078125,-1125.56494140625,-1057.3734130859375,-658.1721801757812,-1257.0008544921875,-1467.4744873046875
315889.88291448046,-646.56494140625,-1214.003662109375,-1073.248291015625,-1118.959716796875,-1052.2655029296875,-654.3147583007812,-1249.906982421875,-1461.090576171875
315889.8869144804,-634.4896240234375,-1201.4207763671875,-1060.22216796875,-1106.3492431640625,-1040.8326416015625,-643.9385375976562,-1236.72900390625,-1448.6220703125
315889.89091448043,-631.4800415039062,-1199.1260986328125,-1057.797119140625,-1104.0621337890625,-1037.3748779296875,-639.7359008789062,-1234.6131591796875,-1445.9771728515625
315889.89491448045,-643.4998779296875,-1211.7789306640625,-1071.050537109375,-1116.904296875,-1048.3311767578125,-649.2338256835938,-1248.139404296875,-1458.2703857421875
315889.89891448047,-652.5177001953125,-1220.339111328125,-1079.94189453125,-1125.6697998046875,-1057.302001953125,-658.4244995117188,-1256.822998046875,-1466.9578857421875
315889.9029144805,-648.385986328125,-1215.468994140625,-1074.9283447265625,-1120.8447265625,-1053.9156494140625,-656.1238403320312,-1251.5391845703125,-1462.47900390625
315889.90691448044,-637.1185302734375,-1204.07568359375,-1062.9945068359375,-1109.285888671875,-1043.5040283203125,-646.4490356445312,-1239.624755859375,-1451.413330078125
315889.91091448045,-634.4236450195312,-1202.3035888671875,-1061.028076171875,-1107.408935546875,-1040.447509765625,-642.545166015625,-1238.096435546875,-1449.4268798828125
315889.91491448047,-646.6878662109375,-1215.2991943359375,-1074.5902099609375,-1120.597412109375,-1051.7369384765625,-652.42529296875,-1251.848876953125,-1462.0628662109375
315889.9189144804,-654.9422607421875,-1223.0799560546875,-1082.65966796875,-1128.53857421875,-1059.9404296875,-660.8445434570312,-1259.7186279296875,-1469.9329833984375
315889.92291448044,-650.0731201171875,-1217.343994140625,-1076.764892578125,-1122.711669921875,-1055.6392822265625,-657.6810913085938,-1253.5894775390625,-1464.537353515625
315889.92691448046,-638.427490234375,-1205.28662109375,-1064.219970703125,-1110.5054931640625,-1044.5941162109375,-647.6066284179688,-1240.8936767578125,-1452.65283203125
315889.9309144805,-635.7201538085938,-1203.2513427734375,-1062.0716552734375,-1108.467041015625,-1041.3787841796875,-643.7112426757812,-1239.0377197265625,-1450.2347412109375
315889.93491448043,-647.7734985351562,-1215.9271240234375,-1075.3336181640625,-1121.2718505859375,-1052.35791015625,-653.3505249023438,-1252.501953125,-1462.5189208984375
315889.93891448044,-655.6521606445312,-1223.335205078125,-1083.0284423828125,-1128.7608642578125,-1060.22412109375,-661.4470825195312,-1259.9229736328125,-1469.991455078125
315889.94291448046,-650.5812377929688,-1217.5244140625,-1077.009765625,-1122.89404296875,-1055.903564453125,-658.2435913085938,-1253.55810546875,-1464.492431640625
315889.9469144805,-638.99853515625,-1205.7003173828125,-1064.650634765625,-1110.8836669921875,-1045.115234375,-648.35400390625,-1241.136962890625,-1452.9366455078125
315889.9509144805,-635.9409790039062,-1203.5889892578125,-1062.344970703125,-1108.6195068359375,-1041.7928466796875,-644.2068481445312,-1239.20458984375,-1450.572998046875
315889.95491448045,-647.5721435546875,-1216.0899658203125,-1075.3570556640625,-1121.203857421875,-1052.5643310546875,-653.4689331054688,-1252.4429931640625,-1462.750244140625
315889.95891448046,-655.3059692382812,-1223.572998046875,-1083.0704345703125,-1128.7069091796875,-1060.3800048828125,-661.3231811523438,-1259.9468994140625,-1470.358642578125
315889.9629144805,-650.615234375,-1218.17529296875,-1077.5008544921875,-1123.2578125,-1056.4151611328125,-658.39599609375,-1254.109130859375,-1465.3466796875
315889.9669144805,-639.4606323242188,-1206.7679443359375,-1065.5628662109375,-1111.6590576171875,-1046.009521484375,-648.8790893554688,-1242.082275390625,-1454.18359375
315889.97091448045,-636.5070190429688,-1204.586181640625,-1063.274169921875,-1109.5072021484375,-1042.6832275390625,-644.7568969726562,-1240.144287109375,-1451.691162109375
315889.97491448047,-648.2935791015625,-1217.1651611328125,-1076.4132080078125,-1122.300537109375,-1053.5924072265625,-654.1798706054688,-1253.5185546875,-1463.932373046875
315889.9789144805,-656.5139770507812,-1225.1048583984375,-1084.5936279296875,-1130.2796630859375,-1061.8768310546875,-662.55517578125,-1261.5546875,-1472.0213623046875
315889.9829144805,-651.7443237304688,-1219.478271484375,-1078.7613525390625,-1124.628662109375,-1057.6737060546875,-659.4990844726562,-1255.4534912109375,-1466.6781005859375
315889.98691448045,-639.9912109375,-1207.190673828125,-1066.0369873046875,-1112.321533203125,-1046.53857421875,-649.4751586914062,-1242.5643310546875,-1454.548828125
315889.99091448047,-636.360595703125,-1204.110595703125,-1062.89306640625,-1109.2734375,-1042.41943359375,-644.7598876953125,-1239.7506103515625,-1451.156494140625
315889.9949144805,-647.2808837890625,-1215.5244140625,-1074.885986328125,-1120.82373046875,-1052.22802734375,-653.2466430664062,-1251.9493408203125,-1462.1302490234375
315889.9989144805,-654.3427124023438,-1222.1011962890625,-1081.7509765625,-1127.5478515625,-1059.2923583984375,-660.59521484375,-1258.5091552734375,-1468.79248046875
315890.00291448046,-648.1326904296875,-1215.1168212890625,-1074.6217041015625,-1120.578369140625,-1053.822265625,-656.2921752929688,-1251.028076171875,-1462.0843505859375
315890.0069144805,-635.6397094726562,-1202.2470703125,-1061.267333984375,-1107.518798828125,-1041.937744140625,-645.2675170898438,-1237.63134765625,-1449.376953125
315890.0109144805,-632.8084716796875,-1200.34716796875,-1059.14306640625,-1105.4405517578125,-1038.7742919921875,-641.1492919921875,-1235.8712158203125,-1447.19921875
315890.0149144805,-644.6279907226562,-1212.8970947265625,-1072.2535400390625,-1118.2037353515625,-1049.599609375,-650.541748046875,-1249.2230224609375,-1459.4239501953125
315890.01891448046,-652.371826171875,-1220.036376953125,-1079.760986328125,-1125.4954833984375,-1057.131591796875,-658.3475341796875,-1256.568115234375,-1466.712646484375
315890.0229144805,-647.2034301757812,-1213.7904052734375,-1073.4295654296875,-1119.2894287109375,-1052.429443359375,-654.99169921875,-1249.9384765625,-1460.747314453125
315890.0269144805,-634.904296875,-1200.985595703125,-1060.189208984375,-1106.4461669921875,-1040.7626953125,-644.4456787109375,-1236.607666015625,-1448.1185302734375
315890.03091448045,-631.5230102539062,-1198.2752685546875,-1057.3504638671875,-1103.744384765625,-1036.9632568359375,-639.938232421875,-1234.0826416015625,-1445.055419921875
315890.03491448046,-642.6365966796875,-1210.1297607421875,-1069.7275390625,-1115.663330078125,-1047.0711669921875,-648.535400390625,-1246.6500244140625,-1456.499755859375
315890.0389144805,-650.6417236328125,-1217.8756103515625,-1077.7037353515625,-1123.4725341796875,-1055.1412353515625,-656.6958618164062,-1254.5228271484375,-1464.4884033203125
315890.0429144805,-645.777587890625,-1212.3270263671875,-1071.94677734375,-1117.881103515625,-1051.0770263671875,-653.7372436523438,-1248.51611328125,-1459.385009765625
315890.04691448045,-633.2815551757812,-1199.5162353515625,-1058.6434326171875,-1104.9554443359375,-1039.384765625,-642.9843139648438,-1235.06689453125,-1446.8160400390625
315890.05091448047,-629.4291381835938,-1196.4931640625,-1055.447509765625,-1101.867919921875,-1035.2076416015625,-637.996826171875,-1232.18310546875,-1443.459716796875
315890.0549144804,-641.0753173828125,-1209.0791015625,-1068.529052734375,-1114.59716796875,-1046.0025634765625,-647.1539916992188,-1245.5614013671875,-1455.6944580078125
315890.05891448044,-648.9819946289062,-1216.623046875,-1076.34375,-1122.2451171875,-1053.90771484375,-655.2215576171875,-1253.21337890625,-1463.3857421875
315890.06291448046,-642.9718017578125,-1209.6092529296875,-1069.198486328125,-1115.22119140625,-1048.4525146484375,-651.1463012695312,-1245.693359375,-1456.6346435546875
315890.06691448047,-630.4943237304688,-1196.62158203125,-1055.7886962890625,-1102.162109375,-1036.6195068359375,-640.3859252929688,-1232.1441650390625,-1443.805908203125
315890.0709144804,-627.1829833984375,-1194.2724609375,-1053.2357177734375,-1099.7401123046875,-1032.9869384765625,-635.8260498046875,-1229.962890625,-1441.198486328125
315890.07491448044,-639.14990234375,-1207.3155517578125,-1066.7244873046875,-1112.81005859375,-1044.090576171875,-645.1610717773438,-1243.7574462890625,-1453.9698486328125
315890.07891448046,-648.0687255859375,-1215.9251708984375,-1075.598388671875,-1121.4576416015625,-1053.034912109375,-654.2328491210938,-1252.452880859375,-1462.73828125
315890.0829144805,-642.4896850585938,-1209.3223876953125,-1068.9022216796875,-1114.8974609375,-1048.0628662109375,-650.6292114257812,-1245.4385986328125,-1456.42578125
315890.08691448043,-630.1201171875,-1196.4052734375,-1055.5673828125,-1101.921875,-1036.3052978515625,-639.9942016601562,-1231.9947509765625,-1443.718994140625
315890.09091448045,-626.8207397460938,-1194.0211181640625,-1052.9774169921875,-1099.4967041015625,-1032.5997314453125,-635.325439453125,-1229.8330078125,-1441.1070556640625
315890.09491448046,-638.9420776367188,-1207.2205810546875,-1066.6075439453125,-1112.7510986328125,-1043.877685546875,-644.8013916015625,-1243.7283935546875,-1453.9598388671875
315890.0989144805,-647.027099609375,-1214.9754638671875,-1074.6226806640625,-1120.501953125,-1051.999755859375,-653.0442504882812,-1251.53369140625,-1461.8404541015625
315890.10291448043,-641.8622436523438,-1208.7723388671875,-1068.32470703125,-1114.27587890625,-1047.42041015625,-649.8133544921875,-1244.950439453125,-1455.9876708984375
315890.10691448045,-629.6510009765625,-1196.0755615234375,-1055.15771484375,-1101.4327392578125,-1035.900146484375,-639.4041748046875,-1231.6610107421875,-1443.5281982421875
315890.11091448046,-626.67236328125,-1194.0057373046875,-1052.886474609375,-1099.2529296875,-1032.5452880859375,-635.131103515625,-1229.754638671875,-1441.1270751953125
315890.1149144805,-638.8985595703125,-1207.193115234375,-1066.5645751953125,-1112.55078125,-1043.77685546875,-644.6370239257812,-1243.75634765625,-1453.9302978515625
315890.11891448044,-647.9738159179688,-1215.8631591796875,-1075.513916015625,-1121.32080078125,-1052.8145751953125,-653.860107421875,-1252.5294189453125,-1462.7158203125
315890.12291448045,-643.2835693359375,-1210.2467041015625,-1069.77001953125,-1115.6483154296875,-1048.8687744140625,-651.2027587890625,-1246.457763671875,-1457.468994140625
315890.12691448047,-631.197265625,-1197.8145751953125,-1056.8458251953125,-1103.025390625,-1037.634765625,-641.00390625,-1233.41064453125,-1445.291259765625
315890.1309144804,-627.7589721679688,-1195.4410400390625,-1054.219482421875,-1100.533447265625,-1033.895751953125,-636.2542114257812,-1231.178955078125,-1442.619384765625
315890.13491448044,-640.2774658203125,-1209.1075439453125,-1068.326171875,-1114.347412109375,-1045.532958984375,-646.025390625,-1245.5938720703125,-1455.876708984375
315890.13891448046,-649.6984252929688,-1218.1663818359375,-1077.6937255859375,-1123.607421875,-1055.00732421875,-655.6466674804688,-1254.8260498046875,-1465.1083984375
315890.1429144805,-645.1596069335938,-1212.6072998046875,-1072.0382080078125,-1118.0953369140625,-1051.181396484375,-653.2416381835938,-1248.8663330078125,-1459.95654296875
315890.1469144804,-632.3778076171875,-1199.1915283203125,-1058.216796875,-1104.586181640625,-1039.0660400390625,-642.3748168945312,-1234.8265380859375,-1446.734130859375
315890.15091448044,-629.010009765625,-1196.846435546875,-1055.6593017578125,-1102.11572265625,-1035.3446044921875,-637.6395874023438,-1232.6058349609375,-1444.066162109375
315890.1549144804,-641.2132568359375,-1210.2066650390625,-1069.4432373046875,-1115.531982421875,-1046.55908203125,-646.9666137695312,-1246.7435302734375,-1457.0228271484375
315890.1589144804,-650.3119506835938,-1218.90576171875,-1078.445068359375,-1124.371337890625,-1055.6927490234375,-656.3036499023438,-1255.5369873046875,-1465.8372802734375
315890.16291448043,-645.3484497070312,-1212.776611328125,-1072.2760009765625,-1118.28076171875,-1051.374755859375,-653.5078735351562,-1249.024658203125,-1460.107421875
315890.1669144804,-633.0797119140625,-1199.9005126953125,-1058.99658203125,-1105.3865966796875,-1039.886474609375,-643.2490844726562,-1235.5914306640625,-1447.489013671875
315890.1709144804,-629.420166015625,-1197.505859375,-1056.308837890625,-1102.82763671875,-1035.95458984375,-638.170166015625,-1233.3492431640625,-1444.8751220703125
315890.1749144804,-641.6334228515625,-1211.0350341796875,-1070.2061767578125,-1116.38623046875,-1047.2130126953125,-647.4122924804688,-1247.6258544921875,-1458.052490234375
315890.17891448044,-650.5767211914062,-1219.37939453125,-1078.88818359375,-1124.9373779296875,-1056.0474853515625,-656.6044311523438,-1256.0615234375,-1466.455810546875
315890.1829144804,-645.3923950195312,-1212.796142578125,-1072.2640380859375,-1118.3662109375,-1051.3922119140625,-653.6078491210938,-1249.076171875,-1460.1478271484375
315890.1869144804,-632.1904296875,-1198.9022216796875,-1057.9559326171875,-1104.29296875,-1038.8597412109375,-642.3488159179688,-1234.6302490234375,-1446.544189453125
315890.1909144804,-628.4979248046875,-1196.3577880859375,-1055.13818359375,-1101.591064453125,-1034.7755126953125,-637.1739501953125,-1232.213134765625,-1443.7149658203125
315890.19491448044,-641.1063232421875,-1210.36865234375,-1069.4842529296875,-1115.622802734375,-1046.4266357421875,-646.768798828125,-1246.96484375,-1457.3040771484375
315890.1989144804,-649.8817749023438,-1218.7584228515625,-1078.143310546875,-1124.12060546875,-1055.187744140625,-655.6502075195312,-1255.5399169921875,-1465.8907470703125
315890.2029144804,-645.1356201171875,-1212.6807861328125,-1072.0472412109375,-1118.1468505859375,-1051.0694580078125,-653.1337280273438,-1249.086181640625,-1460.2232666015625
315890.2069144804,-633.0067749023438,-1199.681640625,-1058.7188720703125,-1105.1312255859375,-1039.563720703125,-642.9797973632812,-1235.58544921875,-1447.4549560546875
315890.21091448044,-629.3751831054688,-1197.1131591796875,-1055.9290771484375,-1102.4454345703125,-1035.4635009765625,-637.7969970703125,-1233.17431640625,-1444.4879150390625
315890.2149144804,-642.1844482421875,-1211.5511474609375,-1070.6697998046875,-1116.8878173828125,-1047.4254150390625,-647.5202026367188,-1248.3087158203125,-1458.53466796875
315890.2189144804,-651.8856811523438,-1221.0595703125,-1080.41552734375,-1126.4766845703125,-1057.24755859375,-657.3318481445312,-1257.9515380859375,-1468.2713623046875
315890.22291448043,-648.2431030273438,-1216.17041015625,-1075.45751953125,-1121.5950927734375,-1054.261962890625,-655.8390502929688,-1252.6363525390625,-1463.739990234375
315890.22691448044,-636.9156494140625,-1204.0606689453125,-1062.9814453125,-1109.4188232421875,-1043.6339111328125,-646.5384521484375,-1239.9339599609375,-1451.8294677734375
