lsl_time,C3,C4,CZ,CP3,CP4,CPZ,FC3,FC4
316013.79491448327,-656.0064086914062,-1228.2103271484375,-1095.145263671875,-1163.3707275390625,-1071.2427978515625,-663.7886962890625,-1322.5628662109375,-1513.08203125
316013.7989144833,-651.531982421875,-1223.8873291015625,-1090.8531494140625,-1159.090087890625,-1066.7923583984375,-659.25732421875,-1318.1959228515625,-1508.694580078125
316013.8029144833,-655.5812377929688,-1229.3009033203125,-1096.01806640625,-1164.3424072265625,-1070.9600830078125,-662.2833862304688,-1323.761962890625,-1513.889892578125
316013.80691448326,-661.1577758789062,-1235.2557373046875,-1101.8133544921875,-1170.212646484375,-1076.5435791015625,-667.5167236328125,-1329.797607421875,-1519.881591796875
316013.81091448327,-661.3685913085938,-1234.6236572265625,-1101.30029296875,-1169.66015625,-1076.6939697265625,-668.3575439453125,-1329.0706787109375,-1519.4459228515625
316013.8149144833,-656.650390625,-1229.129638671875,-1095.9395751953125,-1164.2694091796875,-1072.042236328125,-664.420654296875,-1323.420166015625,-1514.09619140625
316013.8189144833,-651.8572387695312,-1224.5162353515625,-1091.341796875,-1159.6331787109375,-1067.3194580078125,-659.60205078125,-1318.7579345703125,-1509.3759765625
316013.82291448326,-655.0247192382812,-1228.9267578125,-1095.5604248046875,-1163.8367919921875,-1070.48046875,-661.6888427734375,-1323.4251708984375,-1513.5611572265625
316013.8269144833,-661.0763549804688,-1235.186767578125,-1101.7445068359375,-1170.1387939453125,-1076.4337158203125,-667.4168090820312,-1329.81005859375,-1519.7882080078125
316013.8309144833,-661.554443359375,-1234.7236328125,-1101.4112548828125,-1169.83056640625,-1076.8123779296875,-668.5858764648438,-1329.1845703125,-1519.4334716796875
316013.8349144833,-656.3241577148438,-1228.6484375,-1095.514404296875,-1163.896240234375,-1071.632568359375,-664.1574096679688,-1322.9285888671875,-1513.4947509765625
316013.83891448326,-652.1119995117188,-1224.585693359375,-1091.482177734375,-1159.824462890625,-1067.4498291015625,-659.893310546875,-1318.848876953125,-1509.3685302734375
316013.8429144833,-655.389404296875,-1229.304931640625,-1095.9541015625,-1164.3194580078125,-1070.91259765625,-662.2054443359375,-1323.7314453125,-1513.9197998046875
316013.8469144833,-661.4300537109375,-1235.8697509765625,-1102.3414306640625,-1170.890625,-1077.1041259765625,-668.0203247070312,-1330.3302001953125,-1520.506103515625
316013.85091448325,-661.4440307617188,-1234.929443359375,-1101.57763671875,-1170.146240234375,-1077.0126953125,-668.6882934570312,-1329.3604736328125,-1519.7371826171875
316013.85491448327,-656.5674438476562,-1228.979248046875,-1095.857666015625,-1164.3309326171875,-1072.01171875,-664.5850219726562,-1323.311279296875,-1513.8583984375
316013.8589144833,-651.9676513671875,-1224.44287109375,-1091.3623046875,-1159.7745361328125,-1067.2919921875,-659.7879028320312,-1318.852783203125,-1509.26611328125
316013.8629144833,-655.2435302734375,-1229.1046142578125,-1095.78076171875,-1164.1290283203125,-1070.704833984375,-662.0115966796875,-1323.7059326171875,-1513.7105712890625
316013.86691448325,-661.2811889648438,-1235.4615478515625,-1102.045166015625,-1170.5689697265625,-1076.7584228515625,-667.7705078125,-1330.0819091796875,-1520.0699462890625
316013.87091448327,-661.4590454101562,-1234.9459228515625,-1101.6265869140625,-1170.201171875,-1077.0296630859375,-668.6837768554688,-1329.4073486328125,-1519.7781982421875
316013.8749144833,-656.73779296875,-1229.4822998046875,-1096.27734375,-1164.83056640625,-1072.4268798828125,-664.722412109375,-1323.8453369140625,-1514.50439453125
316013.8789144833,-652.9588623046875,-1225.7138671875,-1092.5333251953125,-1161.094970703125,-1068.5130615234375,-660.7501220703125,-1320.0823974609375,-1510.638427734375
316013.88291448326,-655.8570556640625,-1229.9468994140625,-1096.55859375,-1165.058837890625,-1071.5101318359375,-662.6676025390625,-1324.433837890625,-1514.6068115234375
316013.8869144833,-661.7068481445312,-1236.1300048828125,-1102.65771484375,-1171.2159423828125,-1077.39794921875,-668.2705688476562,-1330.7503662109375,-1520.8038330078125
316013.8909144833,-662.1370239257812,-1235.6688232421875,-1102.3504638671875,-1171.01806640625,-1077.7591552734375,-669.2543334960938,-1330.184814453125,-1520.5565185546875
316013.8949144833,-657.25390625,-1229.9234619140625,-1096.7569580078125,-1165.405517578125,-1072.896484375,-665.0941162109375,-1324.2645263671875,-1514.9525146484375
316013.89891448326,-652.3468017578125,-1225.3985595703125,-1092.172119140625,-1160.6258544921875,-1068.2117919921875,-660.2579956054688,-1319.7401123046875,-1510.3641357421875
316013.9029144833,-655.9844360351562,-1230.2987060546875,-1096.880859375,-1165.4119873046875,-1071.83984375,-662.7305297851562,-1324.947998046875,-1515.1129150390625
316013.9069144833,-662.2388916015625,-1236.8939208984375,-1103.3741455078125,-1172.0386962890625,-1078.1058349609375,-668.6702880859375,-1331.610107421875,-1521.76708984375
316013.9109144833,-662.4607543945312,-1236.2584228515625,-1102.8475341796875,-1171.567138671875,-1078.30322265625,-669.6185302734375,-1330.8487548828125,-1521.27197265625
316013.9149144833,-657.9013671875,-1231.0125732421875,-1097.7236328125,-1166.351318359375,-1073.894775390625,-665.8330688476562,-1325.4326171875,-1516.23095703125
316013.9189144833,-653.8726196289062,-1227.320556640625,-1094.0126953125,-1162.5772705078125,-1070.0228271484375,-661.8037719726562,-1321.7415771484375,-1512.5150146484375
316013.9229144833,-657.16796875,-1231.70849609375,-1098.2437744140625,-1166.794921875,-1073.2127685546875,-663.9835205078125,-1326.3154296875,-1516.6102294921875
316013.9269144833,-662.51123046875,-1237.162109375,-1103.614501953125,-1172.216552734375,-1078.3846435546875,-668.9620361328125,-1331.76806640625,-1521.9439697265625
316013.9309144833,-662.4232788085938,-1236.0830078125,-1102.72265625,-1171.309326171875,-1078.1697998046875,-669.5725708007812,-1330.573974609375,-1520.9742431640625
316013.9349144833,-657.4937133789062,-1230.1497802734375,-1097.001220703125,-1165.4635009765625,-1073.1378173828125,-665.4163818359375,-1324.5238037109375,-1515.181396484375
316013.9389144833,-652.7430419921875,-1225.3355712890625,-1092.2191162109375,-1160.5704345703125,-1068.19775390625,-660.5377807617188,-1319.6856689453125,-1510.1802978515625
316013.9429144833,-655.9739379882812,-1229.6676025390625,-1096.3712158203125,-1164.799560546875,-1071.3138427734375,-662.6281127929688,-1324.2630615234375,-1514.2196044921875
316013.9469144833,-661.725830078125,-1235.7508544921875,-1102.322021484375,-1170.8817138671875,-1077.0396728515625,-668.072265625,-1330.402099609375,-1520.236328125
316013.9509144833,-661.8427124023438,-1234.9669189453125,-1101.7484130859375,-1170.337158203125,-1077.1131591796875,-668.9160766601562,-1329.5797119140625,-1519.690185546875
316013.9549144833,-656.73583984375,-1229.0916748046875,-1096.0445556640625,-1164.50927734375,-1072.1121826171875,-664.6215209960938,-1323.5750732421875,-1514.0338134765625
316013.9589144833,-652.3148803710938,-1224.87353515625,-1091.782958984375,-1160.2147216796875,-1067.714111328125,-660.088623046875,-1319.2845458984375,-1509.754638671875
316013.96291448333,-655.6187133789062,-1229.522216796875,-1096.203857421875,-1164.647705078125,-1071.1329345703125,-662.4512329101562,-1324.0606689453125,-1514.1461181640625
316013.9669144833,-661.2132568359375,-1235.4066162109375,-1101.957275390625,-1170.41552734375,-1076.6834716796875,-667.7705078125,-1329.9310302734375,-1519.926513671875
316013.9709144833,-661.6099243164062,-1234.7740478515625,-1101.5126953125,-1170.025390625,-1076.8883056640625,-668.7597045898438,-1329.2294921875,-1519.4659423828125
316013.9749144833,-656.693359375,-1228.830810546875,-1095.80126953125,-1164.1929931640625,-1071.83984375,-664.4796142578125,-1323.3203125,-1513.720458984375
316013.97891448333,-652.6080932617188,-1224.8175048828125,-1091.8089599609375,-1160.144287109375,-1067.72021484375,-660.2774658203125,-1319.3544921875,-1509.621826171875
316013.9829144833,-655.8165283203125,-1229.29150390625,-1096.071533203125,-1164.4498291015625,-1070.9591064453125,-662.4522705078125,-1323.9981689453125,-1513.8109130859375
316013.9869144833,-661.6019287109375,-1235.3541259765625,-1102.019287109375,-1170.5494384765625,-1076.678466796875,-667.9418334960938,-1329.993896484375,-1519.783203125
316013.9909144833,-661.4935302734375,-1234.4149169921875,-1101.182373046875,-1169.705078125,-1076.610107421875,-668.6742553710938,-1328.81689453125,-1518.94287109375
316013.99491448334,-656.3301391601562,-1228.267333984375,-1095.22021484375,-1163.6654052734375,-1071.4017333984375,-664.3462524414062,-1322.4464111328125,-1512.8282470703125
316013.9989144833,-652.1514892578125,-1223.981689453125,-1091.0335693359375,-1159.4088134765625,-1067.0601806640625,-660.0341796875,-1318.1978759765625,-1508.4241943359375
316014.0029144833,-655.1845703125,-1228.1258544921875,-1095.0208740234375,-1163.4261474609375,-1070.02880859375,-662.0216064453125,-1322.4849853515625,-1512.2901611328125
316014.0069144833,-661.0613403320312,-1234.477294921875,-1101.2423095703125,-1169.72265625,-1076.0340576171875,-667.6885375976562,-1328.85986328125,-1518.5816650390625
316014.01091448334,-661.1942749023438,-1233.831787109375,-1100.7022705078125,-1169.156005859375,-1076.1864013671875,-668.52392578125,-1328.140380859375,-1518.0960693359375
316014.01491448336,-656.1412963867188,-1227.793701171875,-1094.8909912109375,-1163.335205078125,-1071.060546875,-664.161865234375,-1322.0347900390625,-1512.2581787109375
316014.0189144834,-652.005126953125,-1223.6849365234375,-1090.8326416015625,-1159.281494140625,-1066.847412109375,-659.8967895507812,-1317.9541015625,-1508.071044921875
316014.0229144833,-655.5123291015625,-1228.399658203125,-1095.37451171875,-1163.8358154296875,-1070.3375244140625,-662.2788696289062,-1322.9140625,-1512.5384521484375
316014.02691448334,-661.3651123046875,-1234.748046875,-1101.5626220703125,-1170.0528564453125,-1076.32275390625,-667.955322265625,-1329.29296875,-1518.8424072265625
316014.03091448336,-661.4915161132812,-1233.947265625,-1100.9171142578125,-1169.44384765625,-1076.394287109375,-668.8046875,-1328.4256591796875,-1518.241455078125
316014.0349144834,-657.0026245117188,-1228.5960693359375,-1095.7457275390625,-1164.2230224609375,-1071.9462890625,-665.1240844726562,-1322.9075927734375,-1513.0870361328125
316014.03891448333,-652.51220703125,-1224.2254638671875,-1091.354248046875,-1159.7835693359375,-1067.4268798828125,-660.5422973632812,-1318.5091552734375,-1508.634521484375
316014.04291448335,-655.6976318359375,-1228.810302734375,-1095.639892578125,-1164.10205078125,-1070.6717529296875,-662.5821533203125,-1323.2303466796875,-1513.0120849609375
316014.04691448336,-661.6513671875,-1235.231689453125,-1101.914306640625,-1170.43798828125,-1076.7445068359375,-668.3160400390625,-1329.6837158203125,-1519.4124755859375
316014.0509144834,-661.3630981445312,-1234.01171875,-1100.859130859375,-1169.3988037109375,-1076.4222412109375,-668.82568359375,-1328.2933349609375,-1518.27490234375
316014.05491448333,-656.1353149414062,-1227.85009765625,-1094.9014892578125,-1163.4046630859375,-1071.157470703125,-664.3082885742188,-1322.0657958984375,-1512.3056640625
316014.05891448335,-651.9826049804688,-1223.90576171875,-1090.9505615234375,-1159.4033203125,-1067.0587158203125,-660.076171875,-1318.159423828125,-1508.3668212890625
316014.06291448337,-655.735107421875,-1228.9217529296875,-1095.7867431640625,-1164.3018798828125,-1070.82568359375,-662.7355346679688,-1323.421142578125,-1513.19091796875
316014.0669144833,-661.7068481445312,-1235.2471923828125,-1101.9942626953125,-1170.60986328125,-1076.803955078125,-668.4454345703125,-1329.7371826171875,-1519.4439697265625
316014.07091448334,-661.58642578125,-1234.3409423828125,-1101.1663818359375,-1169.7950439453125,-1076.696044921875,-669.0145263671875,-1328.633544921875,-1518.70654296875
316014.07491448335,-656.2247314453125,-1228.245849609375,-1095.2197265625,-1163.677490234375,-1071.4752197265625,-664.4031982421875,-1322.5299072265625,-1512.9022216796875
316014.07891448337,-651.8172607421875,-1223.9666748046875,-1090.9481201171875,-1159.3084716796875,-1067.05419921875,-659.8468627929688,-1318.4012451171875,-1508.6400146484375
316014.0829144833,-654.9842529296875,-1228.444091796875,-1095.2156982421875,-1163.6199951171875,-1070.256103515625,-661.9776611328125,-1323.052978515625,-1512.8612060546875
316014.08691448334,-660.9149780273438,-1234.6002197265625,-1101.2923583984375,-1169.9014892578125,-1076.10595703125,-667.5701293945312,-1329.1630859375,-1518.9423828125
316014.09091448336,-660.9774169921875,-1233.77392578125,-1100.6363525390625,-1169.228515625,-1076.10791015625,-668.2691040039062,-1328.3072509765625,-1518.3388671875
316014.0949144834,-656.121337890625,-1228.011474609375,-1095.07177734375,-1163.5780029296875,-1071.2503662109375,-664.2083740234375,-1322.4339599609375,-1512.759765625
316014.09891448333,-651.4915161132812,-1223.4266357421875,-1090.4964599609375,-1158.99462890625,-1066.5426025390625,-659.4706420898438,-1317.8746337890625,-1508.0885009765625
316014.10291448334,-654.9022827148438,-1228.1103515625,-1094.975341796875,-1163.43408203125,-1069.995361328125,-661.8177490234375,-1322.7471923828125,-1512.455078125
316014.10691448336,-661.0758666992188,-1234.66015625,-1101.4661865234375,-1170.048828125,-1076.2313232421875,-667.7420043945312,-1329.345947265625,-1518.997314453125
316014.1109144834,-661.037353515625,-1233.90625,-1100.8201904296875,-1169.328369140625,-1076.2802734375,-668.448974609375,-1328.4981689453125,-1518.4566650390625
316014.11491448333,-655.9559326171875,-1227.9835205078125,-1095.0352783203125,-1163.45166015625,-1071.25634765625,-664.1218872070312,-1322.416015625,-1512.682373046875
316014.11891448335,-651.5579833984375,-1223.572509765625,-1090.67236328125,-1159.113525390625,-1066.7564697265625,-659.5680541992188,-1318.0579833984375,-1508.21435546875
316014.12291448336,-655.0786743164062,-1228.498046875,-1095.3590087890625,-1163.897216796875,-1070.405029296875,-662.006591796875,-1323.1678466796875,-1512.95068359375
316014.1269144834,-661.3441162109375,-1235.2906494140625,-1101.9658203125,-1170.6478271484375,-1076.8173828125,-668.00732421875,-1329.970458984375,-1519.7462158203125
316014.13091448334,-661.7817993164062,-1234.7860107421875,-1101.612060546875,-1170.3470458984375,-1077.203125,-669.1803588867188,-1329.3280029296875,-1519.364501953125
316014.13491448335,-656.8402099609375,-1228.7938232421875,-1095.8546142578125,-1164.478271484375,-1072.1986083984375,-665.0076904296875,-1323.2523193359375,-1513.4632568359375
316014.13891448337,-651.8362426757812,-1224.066650390625,-1091.095458984375,-1159.565673828125,-1067.3199462890625,-659.9987182617188,-1318.47412109375,-1508.6795654296875
316014.1429144833,-655.314453125,-1228.8682861328125,-1095.6573486328125,-1164.282958984375,-1070.8297119140625,-662.3603515625,-1323.4486083984375,-1513.2298583984375
316014.14691448334,-661.1063232421875,-1235.0673828125,-1101.7030029296875,-1170.405029296875,-1076.6375732421875,-667.8389282226562,-1329.7171630859375,-1519.37451171875
316014.15091448335,-661.7178344726562,-1234.648193359375,-1101.4976806640625,-1170.2047119140625,-1077.0941162109375,-669.0994262695312,-1329.27197265625,-1519.1541748046875
316014.15491448337,-656.6574096679688,-1228.4591064453125,-1095.5618896484375,-1164.3084716796875,-1071.8538818359375,-664.7584228515625,-1322.943603515625,-1513.0970458984375
316014.1589144833,-651.99462890625,-1223.9022216796875,-1091.0010986328125,-1159.7115478515625,-1067.1466064453125,-659.9532470703125,-1318.421142578125,-1508.53369140625
316014.16291448334,-655.3014526367188,-1228.7384033203125,-1095.5264892578125,-1164.260498046875,-1070.6268310546875,-662.2134399414062,-1323.36279296875,-1513.14697265625
316014.1669144833,-661.616943359375,-1235.531982421875,-1102.16259765625,-1170.9581298828125,-1076.977783203125,-668.2201538085938,-1330.249267578125,-1519.91552734375
316014.1709144833,-662.10400390625,-1235.1572265625,-1101.96728515625,-1170.7017822265625,-1077.430419921875,-669.3927001953125,-1329.8525390625,-1519.772216796875
316014.17491448333,-656.7667846679688,-1228.9991455078125,-1096.006591796875,-1164.6661376953125,-1072.1995849609375,-664.8953247070312,-1323.51513671875,-1513.8228759765625
316014.17891448335,-651.9996337890625,-1224.42138671875,-1091.42822265625,-1160.05078125,-1067.4998779296875,-660.0366821289062,-1319.0267333984375,-1509.277099609375
316014.1829144833,-655.2620239257812,-1229.0301513671875,-1095.7957763671875,-1164.499267578125,-1070.7537841796875,-662.1510009765625,-1323.8758544921875,-1513.7034912109375
316014.1869144833,-661.4970092773438,-1235.703857421875,-1102.3189697265625,-1171.180908203125,-1077.0067138671875,-668.062255859375,-1330.573486328125,-1520.345703125
316014.19091448333,-662.481201171875,-1235.8287353515625,-1102.59326171875,-1171.4967041015625,-1077.9744873046875,-669.7913818359375,-1330.5704345703125,-1520.6539306640625
316014.19491448335,-657.06005859375,-1229.625244140625,-1096.5440673828125,-1165.1632080078125,-1072.6541748046875,-665.1470947265625,-1324.279052734375,-1514.69775390625
316014.1989144833,-651.7238159179688,-1224.31494140625,-1091.2593994140625,-1159.7305908203125,-1067.26708984375,-659.6984252929688,-1319.0086669921875,-1509.3055419921875
316014.2029144833,-654.9647216796875,-1228.7369384765625,-1095.4954833984375,-1164.10205078125,-1070.4384765625,-661.8822021484375,-1323.485107421875,-1513.370849609375
316014.20691448334,-661.466552734375,-1235.723876953125,-1102.321533203125,-1171.0684814453125,-1077.0047607421875,-668.0957641601562,-1330.4205322265625,-1520.23681640625
316014.21091448335,-662.2908935546875,-1235.75927734375,-1102.50439453125,-1171.25634765625,-1077.8885498046875,-669.6694946289062,-1330.4185791015625,-1520.517578125
316014.21491448337,-656.95166015625,-1229.5572509765625,-1096.5115966796875,-1165.09033203125,-1072.6207275390625,-665.1655883789062,-1324.150146484375,-1514.557373046875
316014.2189144833,-651.7782592773438,-1224.3194580078125,-1091.333251953125,-1159.8740234375,-1067.33251953125,-659.8778076171875,-1318.958251953125,-1509.2386474609375
316014.22291448334,-654.9118041992188,-1228.656494140625,-1095.4814453125,-1164.1260986328125,-1070.4129638671875,-661.9276733398438,-1323.463623046875,-1513.2169189453125
316014.22691448336,-661.5804443359375,-1235.7213134765625,-1102.41943359375,-1171.2618408203125,-1077.09521484375,-668.2666015625,-1330.5150146484375,-1520.1583251953125
316014.23091448337,-662.6111450195312,-1235.966064453125,-1102.78857421875,-1171.61962890625,-1078.183837890625,-669.9762573242188,-1330.7432861328125,-1520.666015625
316014.2349144833,-657.25390625,-1229.6826171875,-1096.70849609375,-1165.4085693359375,-1072.8914794921875,-665.4473266601562,-1324.410888671875,-1514.611328125
316014.23891448334,-651.5999145507812,-1224.023193359375,-1091.093994140625,-1159.7760009765625,-1067.2535400390625,-659.8133544921875,-1318.6524658203125,-1508.8724365234375
316014.24291448336,-654.6444702148438,-1228.4906005859375,-1095.2811279296875,-1164.090576171875,-1070.3914794921875,-661.789794921875,-1323.1708984375,-1513.004638671875
316014.2469144834,-661.4745483398438,-1235.769287109375,-1102.3843994140625,-1171.30029296875,-1077.2310791015625,-668.3310546875,-1330.4171142578125,-1520.1143798828125
316014.25091448333,-661.7802734375,-1235.015869140625,-1101.8238525390625,-1170.683349609375,-1077.4134521484375,-669.3727416992188,-1329.52978515625,-1519.4783935546875
316014.25491448335,-656.650390625,-1228.73388671875,-1095.8096923828125,-1164.565673828125,-1072.181640625,-665.03369140625,-1323.1494140625,-1513.3568115234375
316014.25891448336,-651.4935302734375,-1223.5899658203125,-1090.704345703125,-1159.3863525390625,-1067.0032958984375,-659.8328247070312,-1318.0615234375,-1508.19140625
316014.2629144834,-654.4161987304688,-1227.93359375,-1094.7540283203125,-1163.5235595703125,-1069.94140625,-661.6318969726562,-1322.54443359375,-1512.2171630859375
316014.2669144834,-661.4140625,-1235.3641357421875,-1102.041748046875,-1171.0120849609375,-1076.9052734375,-668.234130859375,-1329.982421875,-1519.5413818359375
316014.27091448335,-662.21142578125,-1235.4066162109375,-1102.203125,-1171.0989990234375,-1077.7791748046875,-669.8168334960938,-1329.885009765625,-1519.815185546875
316014.27491448337,-656.9396362304688,-1229.260009765625,-1096.2413330078125,-1164.9244384765625,-1072.5562744140625,-665.3104858398438,-1323.6590576171875,-1513.9803466796875
316014.2789144834,-651.726806640625,-1223.980712890625,-1091.0465087890625,-1159.6761474609375,-1067.301025390625,-660.1001586914062,-1318.4227294921875,-1508.697998046875
316014.2829144834,-654.51708984375,-1228.076416015625,-1094.900390625,-1163.6429443359375,-1070.0352783203125,-661.7672729492188,-1322.6917724609375,-1512.43701171875
316014.28691448335,-661.0918579101562,-1235.1258544921875,-1101.77099609375,-1170.6533203125,-1076.5401611328125,-667.87890625,-1329.81005859375,-1519.4000244140625
316014.29091448337,-662.284912109375,-1235.4429931640625,-1102.235595703125,-1171.1064453125,-1077.69921875,-669.7703857421875,-1330.035888671875,-1519.93505859375
316014.2949144834,-656.8897094726562,-1228.959228515625,-1096.010498046875,-1164.7955322265625,-1072.2335205078125,-665.1820678710938,-1323.460693359375,-1513.6630859375
316014.2989144834,-651.1353149414062,-1223.044921875,-1090.1796875,-1158.9417724609375,-1066.341796875,-659.4241943359375,-1317.4959716796875,-1507.661376953125
316014.30291448336,-653.78369140625,-1227.062255859375,-1093.918212890625,-1162.765625,-1068.9716796875,-660.9159545898438,-1321.651611328125,-1511.3509521484375
316014.3069144834,-660.5592651367188,-1234.42333984375,-1101.0775146484375,-1170.02880859375,-1075.76123046875,-667.221923828125,-1329.0721435546875,-1518.642578125
316014.3109144834,-661.8392333984375,-1234.7835693359375,-1101.5970458984375,-1170.5260009765625,-1076.9923095703125,-669.14892578125,-1329.4244384765625,-1519.238037109375
316014.3149144834,-657.179443359375,-1229.0626220703125,-1096.1494140625,-1164.949462890625,-1072.345947265625,-665.2744750976562,-1323.7314453125,-1513.805419921875
316014.31891448336,-651.02490234375,-1222.9820556640625,-1090.13623046875,-1158.7738037109375,-1066.334228515625,-659.226318359375,-1317.644287109375,-1507.7633056640625
316014.3229144834,-653.6477661132812,-1227.3140869140625,-1094.134521484375,-1162.82958984375,-1069.220947265625,-660.8115844726562,-1322.0677490234375,-1511.8470458984375
316014.3269144834,-660.6401977539062,-1235.101806640625,-1101.6510009765625,-1170.4384765625,-1076.4151611328125,-667.4767456054688,-1329.8165283203125,-1519.5413818359375
316014.3309144834,-661.941162109375,-1235.4200439453125,-1102.1591796875,-1170.9371337890625,-1077.646240234375,-669.4486694335938,-1330.1143798828125,-1520.0584716796875
316014.33491448336,-656.8397216796875,-1229.0526123046875,-1096.0975341796875,-1164.8804931640625,-1072.3929443359375,-665.09765625,-1323.678955078125,-1513.9188232421875
316014.3389144834,-651.2871704101562,-1223.375244140625,-1090.5064697265625,-1159.14599609375,-1066.7689208984375,-659.62548828125,-1317.97509765625,-1508.18798828125
316014.3429144834,-653.4888916015625,-1227.064697265625,-1093.8997802734375,-1162.5762939453125,-1069.0540771484375,-660.7601318359375,-1321.672607421875,-1511.4932861328125
316014.3469144834,-660.1445922851562,-1234.495849609375,-1101.050537109375,-1169.844970703125,-1075.882080078125,-667.0755615234375,-1329.0477294921875,-1518.8768310546875
316014.35091448337,-661.2537231445312,-1234.744140625,-1101.4251708984375,-1170.1846923828125,-1076.9837646484375,-668.9155883789062,-1329.1661376953125,-1519.3310546875
316014.3549144834,-655.7815551757812,-1228.073974609375,-1095.0528564453125,-1163.64794921875,-1071.3912353515625,-664.2952880859375,-1322.4124755859375,-1512.826171875
316014.3589144834,-649.66650390625,-1221.6375732421875,-1088.7637939453125,-1157.216064453125,-1065.0137939453125,-658.0807495117188,-1316.0755615234375,-1506.31298828125
316014.3629144834,-652.3603515625,-1225.6458740234375,-1092.525390625,-1161.03955078125,-1067.6207275390625,-659.5670776367188,-1320.24072265625,-1509.9725341796875
316014.36691448337,-659.571044921875,-1233.4296875,-1100.1107177734375,-1168.7608642578125,-1074.8099365234375,-666.32763671875,-1328.0599365234375,-1517.641845703125
316014.3709144834,-660.7800903320312,-1233.552001953125,-1100.446533203125,-1169.0831298828125,-1075.7886962890625,-668.16015625,-1328.1513671875,-1517.944580078125
316014.3749144834,-655.7581176757812,-1227.31103515625,-1094.5152587890625,-1163.0733642578125,-1070.6492919921875,-663.8296508789062,-1321.868896484375,-1511.9444580078125
316014.3789144834,-649.6075439453125,-1221.2178955078125,-1088.4840087890625,-1156.92236328125,-1064.6431884765625,-657.7694702148438,-1315.8072509765625,-1505.893310546875
316014.3829144834,-652.5501708984375,-1225.771240234375,-1092.7357177734375,-1161.2064208984375,-1067.7861328125,-659.7089233398438,-1320.4730224609375,-1510.1373291015625
316014.3869144834,-659.9542236328125,-1233.7398681640625,-1100.4879150390625,-1169.18408203125,-1075.2086181640625,-666.7198486328125,-1328.3731689453125,-1517.95068359375
316014.3909144834,-661.2017211914062,-1234.0201416015625,-1100.9051513671875,-1169.5028076171875,-1076.3702392578125,-668.6533203125,-1328.4552001953125,-1518.3427734375
316014.3949144834,-655.7001342773438,-1227.3790283203125,-1094.5286865234375,-1162.9395751953125,-1070.814697265625,-664.0344848632812,-1321.653564453125,-1511.866943359375
316014.3989144834,-649.6939697265625,-1221.2149658203125,-1088.489013671875,-1156.7984619140625,-1064.717529296875,-658.0003051757812,-1315.5609130859375,-1505.7279052734375
316014.4029144834,-652.16748046875,-1225.120849609375,-1092.1226806640625,-1160.490966796875,-1067.172119140625,-659.2598266601562,-1319.6522216796875,-1509.302001953125
316014.4069144834,-659.3956909179688,-1233.206787109375,-1099.928466796875,-1168.484130859375,-1074.6051025390625,-666.111328125,-1327.74267578125,-1517.3011474609375
316014.4109144834,-660.8889770507812,-1234.066650390625,-1100.879150390625,-1169.477783203125,-1076.2838134765625,-668.341552734375,-1328.549072265625,-1518.4677734375
316014.4149144834,-656.3826293945312,-1228.614501953125,-1095.6263427734375,-1164.0611572265625,-1071.890869140625,-664.6874389648438,-1323.075439453125,-1513.310791015625
316014.4189144834,-650.0846557617188,-1222.2021484375,-1089.304443359375,-1157.67626953125,-1065.5413818359375,-658.3445434570312,-1316.7244873046875,-1506.9478759765625
316014.4229144834,-652.392822265625,-1225.9366455078125,-1092.7421875,-1161.2744140625,-1067.8260498046875,-659.4231567382812,-1320.5675048828125,-1510.379150390625
316014.4269144834,-659.5890502929688,-1233.8043212890625,-1100.3455810546875,-1169.1160888671875,-1075.0543212890625,-666.2102661132812,-1328.4022216796875,-1518.1279296875
316014.4309144834,-661.4410400390625,-1234.927978515625,-1101.55810546875,-1170.2791748046875,-1076.9742431640625,-668.7647094726562,-1329.5257568359375,-1519.5653076171875
316014.4349144834,-656.5794677734375,-1229.001708984375,-1095.9266357421875,-1164.4608154296875,-1072.1361083984375,-664.7918701171875,-1323.6495361328125,-1513.9698486328125
316014.4389144834,-650.324462890625,-1222.4688720703125,-1089.5162353515625,-1157.882568359375,-1065.730224609375,-658.5643310546875,-1317.170654296875,-1507.3741455078125
316014.44291448337,-652.6126098632812,-1225.921630859375,-1092.7481689453125,-1161.2109375,-1067.74267578125,-659.5335693359375,-1320.8592529296875,-1510.443603515625
316014.4469144834,-660.0366821289062,-1233.7503662109375,-1100.39306640625,-1168.9871826171875,-1074.9598388671875,-666.4525756835938,-1328.6944580078125,-1518.048095703125
316014.4509144834,-661.3526000976562,-1234.0377197265625,-1100.880615234375,-1169.4307861328125,-1076.1424560546875,-668.4839477539062,-1328.9422607421875,-1518.5206298828125
316014.4549144834,-656.50048828125,-1227.969482421875,-1095.1402587890625,-1163.5975341796875,-1071.1854248046875,-664.3792114257812,-1322.967529296875,-1512.7772216796875
316014.4589144834,-650.087646484375,-1221.51318359375,-1088.7637939453125,-1157.1341552734375,-1064.7940673828125,-658.0322875976562,-1316.5057373046875,-1506.4033203125
316014.4629144834,-652.6036376953125,-1225.5269775390625,-1092.474365234375,-1160.922607421875,-1067.321044921875,-659.355712890625,-1320.6689453125,-1510.074462890625
316014.46691448335,-659.9982299804688,-1233.53662109375,-1100.2586669921875,-1168.8773193359375,-1074.6871337890625,-666.3001708984375,-1328.635986328125,-1517.901611328125
316014.47091448336,-661.3541259765625,-1233.8978271484375,-1100.78173828125,-1169.37841796875,-1075.99755859375,-668.4844360351562,-1328.8369140625,-1518.3212890625
316014.4749144834,-656.17626953125,-1227.4974365234375,-1094.6695556640625,-1163.1553955078125,-1070.7686767578125,-664.2373046875,-1322.3021240234375,-1512.0743408203125
316014.4789144834,-649.6844482421875,-1220.944580078125,-1088.1778564453125,-1156.5006103515625,-1064.3548583984375,-657.8449096679688,-1315.7833251953125,-1505.551513671875
316014.48291448335,-652.114501953125,-1225.06689453125,-1091.92529296875,-1160.3011474609375,-1066.9862060546875,-659.1734008789062,-1320.0538330078125,-1509.3785400390625
316014.48691448336,-660.0556640625,-1233.9093017578125,-1100.449462890625,-1169.0521240234375,-1075.0318603515625,-666.5929565429688,-1328.94775390625,-1518.2188720703125
316014.4909144834,-661.5789794921875,-1234.6771240234375,-1101.308349609375,-1169.931396484375,-1076.6265869140625,-668.8681030273438,-1329.52685546875,-1519.1651611328125
316014.4949144834,-656.1563110351562,-1227.8760986328125,-1094.864501953125,-1163.3492431640625,-1071.01904296875,-664.290283203125,-1322.630859375,-1512.51953125
316014.49891448335,-649.9937133789062,-1221.222900390625,-1088.4481201171875,-1156.8309326171875,-1064.61962890625,-658.1466674804688,-1316.068603515625,-1505.8033447265625
316014.50291448337,-652.5202026367188,-1225.404541015625,-1092.3125,-1160.6673583984375,-1067.321044921875,-659.537109375,-1320.401123046875,-1509.7381591796875
316014.5069144834,-660.4628295898438,-1234.5338134765625,-1101.0889892578125,-1169.6761474609375,-1075.6033935546875,-666.9536743164062,-1329.6861572265625,-1519.0462646484375
316014.5109144834,-662.6171264648438,-1236.0025634765625,-1102.6431884765625,-1171.311767578125,-1077.8360595703125,-669.7379150390625,-1331.154052734375,-1520.8768310546875
316014.5149144834,-657.6500854492188,-1229.9783935546875,-1096.9033203125,-1165.4599609375,-1072.91650390625,-665.63720703125,-1325.058837890625,-1515.1898193359375
316014.51891448343,-651.3676147460938,-1223.580078125,-1090.65087890625,-1159.0721435546875,-1066.6705322265625,-659.3956909179688,-1318.8033447265625,-1508.8843994140625
316014.5229144834,-653.5563354492188,-1227.319580078125,-1094.090576171875,-1162.65380859375,-1068.9306640625,-660.4154052734375,-1322.63232421875,-1512.3145751953125
316014.5269144834,-661.1837768554688,-1235.7138671875,-1102.216552734375,-1170.974609375,-1076.5550537109375,-667.5067138671875,-1330.99609375,-1520.592041015625
316014.5309144834,-663.2501220703125,-1236.9613037109375,-1103.574951171875,-1172.3284912109375,-1078.58642578125,-670.2315063476562,-1332.1531982421875,-1522.0838623046875
316014.53491448343,-658.3760375976562,-1231.030029296875,-1097.9420166015625,-1166.5810546875,-1073.7957763671875,-666.2427368164062,-1326.1849365234375,-1516.4718017578125
316014.5389144834,-651.6119384765625,-1224.078125,-1091.1654052734375,-1159.5887451171875,-1067.0587158203125,-659.58154296875,-1319.3380126953125,-1509.611328125
316014.5429144834,-653.8206787109375,-1227.8651123046875,-1094.63818359375,-1163.100341796875,-1069.347900390625,-660.5882568359375,-1323.2952880859375,-1513.12548828125
316014.5469144834,-662.199462890625,-1237.29150390625,-1103.678466796875,-1172.363037109375,-1078.011474609375,-668.601318359375,-1332.5384521484375,-1522.37109375
316014.55091448344,-664.4781494140625,-1239.0301513671875,-1105.4654541015625,-1174.18505859375,-1080.5439453125,-671.7063598632812,-1334.0966796875,-1524.35546875
316014.5549144834,-659.3672485351562,-1232.8970947265625,-1099.584228515625,-1168.207275390625,-1075.5704345703125,-667.4922485351562,-1327.922607421875,-1518.5177001953125
316014.5589144834,-652.2189331054688,-1225.2711181640625,-1092.1695556640625,-1160.683837890625,-1068.28173828125,-660.4668579101562,-1320.2901611328125,-1510.7828369140625
316014.5629144834,-654.2488403320312,-1228.5960693359375,-1095.2596435546875,-1163.8797607421875,-1070.232177734375,-661.3461303710938,-1323.6815185546875,-1513.6470947265625
316014.5669144834,-661.812744140625,-1236.9283447265625,-1103.3182373046875,-1172.151123046875,-1077.841064453125,-668.4154663085938,-1332.00634765625,-1521.8289794921875
316014.5709144834,-664.0949096679688,-1238.45263671875,-1104.9359130859375,-1173.8173828125,-1080.189208984375,-671.43408203125,-1333.4371337890625,-1523.610107421875
316014.5749144834,-659.1908569335938,-1232.44091796875,-1099.1910400390625,-1167.970458984375,-1075.3355712890625,-667.500244140625,-1327.2691650390625,-1517.8177490234375
316014.5789144834,-651.9496459960938,-1224.713623046875,-1091.6629638671875,-1160.3720703125,-1067.882568359375,-660.29296875,-1319.5477294921875,-1510.0264892578125
316014.5829144834,-653.493408203125,-1227.493408203125,-1094.20849609375,-1162.91455078125,-1069.220458984375,-660.5567626953125,-1322.5538330078125,-1512.401611328125
316014.5869144834,-661.0404052734375,-1235.67236328125,-1102.171630859375,-1171.1304931640625,-1076.7049560546875,-667.610595703125,-1330.681396484375,-1520.3516845703125
316014.5909144834,-663.0087890625,-1236.804443359375,-1103.488525390625,-1172.4683837890625,-1078.6759033203125,-670.2659912109375,-1331.8284912109375,-1521.7716064453125
316014.59491448343,-658.4654541015625,-1231.2119140625,-1098.1778564453125,-1167.041748046875,-1074.1690673828125,-666.552001953125,-1326.2884521484375,-1516.5577392578125
316014.5989144834,-652.028076171875,-1224.477783203125,-1091.6240234375,-1160.360595703125,-1067.6627197265625,-660.1875610351562,-1319.649658203125,-1509.8756103515625
316014.6029144834,-654.0979614257812,-1227.967529296875,-1094.867919921875,-1163.677978515625,-1069.7091064453125,-661.0958251953125,-1323.1988525390625,-1513.01953125
316014.6069144834,-661.3456420898438,-1235.95068359375,-1102.5992431640625,-1171.548583984375,-1076.94482421875,-667.8214721679688,-1331.1629638671875,-1520.8243408203125
316014.61091448343,-663.0702514648438,-1236.7454833984375,-1103.5255126953125,-1172.4449462890625,-1078.553955078125,-670.2020263671875,-1331.876953125,-1521.7525634765625
316014.6149144834,-658.1557006835938,-1230.6748046875,-1097.7156982421875,-1166.4866943359375,-1073.56201171875,-666.1152954101562,-1325.680908203125,-1515.8917236328125
316014.6189144834,-651.6773681640625,-1223.9322509765625,-1091.136962890625,-1159.760009765625,-1067.043701171875,-659.7409057617188,-1318.9832763671875,-1509.18359375
316014.6229144834,-653.9151000976562,-1227.7491455078125,-1094.631591796875,-1163.291259765625,-1069.4407958984375,-660.87548828125,-1322.8975830078125,-1512.6962890625
316014.62691448344,-661.5394897460938,-1236.1868896484375,-1102.776611328125,-1171.613525390625,-1077.170654296875,-668.0263061523438,-1331.2384033203125,-1520.958251953125
316014.6309144834,-663.1856689453125,-1237.0657958984375,-1103.7532958984375,-1172.5228271484375,-1078.877197265625,-670.4473876953125,-1331.89794921875,-1521.928466796875
316014.6349144834,-658.3240356445312,-1231.137451171875,-1098.0589599609375,-1166.6824951171875,-1074.0726318359375,-666.5390014648438,-1325.855712890625,-1516.1845703125
316014.6389144834,-651.7557983398438,-1224.1456298828125,-1091.2293701171875,-1159.7620849609375,-1067.3629150390625,-660.0751342773438,-1318.8248291015625,-1509.13720703125
316014.6429144834,-653.4349365234375,-1227.0982666015625,-1093.9671630859375,-1162.623291015625,-1069.0111083984375,-660.63623046875,-1321.9254150390625,-1511.7210693359375
316014.6469144834,-660.78955078125,-1235.2491455078125,-1101.8348388671875,-1170.6873779296875,-1076.462158203125,-667.5536499023438,-1329.9849853515625,-1519.666748046875
316014.65091448335,-663.2506103515625,-1237.1312255859375,-1103.75537109375,-1172.6187744140625,-1079.1090087890625,-670.7691040039062,-1331.718994140625,-1521.7645263671875
316014.65491448337,-658.8760986328125,-1231.802978515625,-1098.657470703125,-1167.3699951171875,-1074.8419189453125,-667.286865234375,-1326.3983154296875,-1516.757568359375
316014.6589144834,-652.5476684570312,-1225.2232666015625,-1092.237548828125,-1160.8497314453125,-1068.49609375,-661.0703735351562,-1319.8974609375,-1510.2623291015625
316014.6629144834,-654.8867797851562,-1229.0736083984375,-1095.814697265625,-1164.4503173828125,-1070.9486083984375,-662.308837890625,-1323.8118896484375,-1513.7789306640625
316014.66691448336,-662.4088134765625,-1237.4688720703125,-1103.9091796875,-1172.7777099609375,-1078.553466796875,-669.3307495117188,-1332.1007080078125,-1522.0223388671875
316014.6709144834,-664.5960083007812,-1239.0052490234375,-1105.52294921875,-1174.3994140625,-1080.82470703125,-672.2573852539062,-1333.5416259765625,-1523.771484375
316014.6749144834,-660.0826416015625,-1233.3466796875,-1100.104736328125,-1168.8907470703125,-1076.245849609375,-668.5333862304688,-1327.82421875,-1518.3477783203125
316014.6789144834,-653.2590942382812,-1226.0989990234375,-1093.02197265625,-1161.6485595703125,-1069.27294921875,-661.812744140625,-1320.5654296875,-1511.0946044921875
316014.68291448336,-654.4286499023438,-1228.4691162109375,-1095.2061767578125,-1163.86474609375,-1070.28857421875,-661.832275390625,-1323.1124267578125,-1513.095458984375
316014.6869144834,-662.0685424804688,-1236.823974609375,-1103.290771484375,-1172.16015625,-1077.9010009765625,-668.9855346679688,-1331.4307861328125,-1521.25048828125
316014.6909144834,-663.923095703125,-1237.9080810546875,-1104.4708251953125,-1173.399658203125,-1079.78955078125,-671.5609741210938,-1332.37353515625,-1522.4954833984375
316014.6949144834,-659.2138671875,-1232.0443115234375,-1098.88720703125,-1167.794677734375,-1075.018310546875,-667.6920776367188,-1326.4921875,-1516.8900146484375
316014.69891448336,-652.9268798828125,-1225.4061279296875,-1092.431884765625,-1161.2078857421875,-1068.662353515625,-661.5194702148438,-1319.9375,-1510.2882080078125
316014.7029144834,-654.9971923828125,-1228.9088134765625,-1095.6788330078125,-1164.544677734375,-1070.816162109375,-662.501220703125,-1323.58154296875,-1513.4556884765625
316014.7069144834,-662.5821533203125,-1237.3065185546875,-1103.82080078125,-1172.9395751953125,-1078.4586181640625,-669.5630493164062,-1331.98681640625,-1521.7236328125
316014.7109144834,-665.022705078125,-1239.1260986328125,-1105.7132568359375,-1174.8790283203125,-1081.0460205078125,-672.6970825195312,-1333.6865234375,-1523.762451171875
316014.71491448337,-660.4703369140625,-1233.52001953125,-1100.3460693359375,-1169.3629150390625,-1076.5335693359375,-668.9844970703125,-1328.0555419921875,-1518.427734375
316014.7189144834,-654.0070190429688,-1226.9638671875,-1093.9122314453125,-1162.8646240234375,-1070.181640625,-662.629638671875,-1321.545166015625,-1512.057373046875
316014.7229144834,-655.7306518554688,-1230.54296875,-1097.1370849609375,-1166.0965576171875,-1072.2470703125,-663.2490844726562,-1325.316650390625,-1515.5001220703125
316014.7269144834,-663.7551879882812,-1239.6871337890625,-1105.9510498046875,-1175.0853271484375,-1080.5263671875,-670.7051391601562,-1334.5572509765625,-1524.65771484375
316014.73091448337,-666.7537841796875,-1242.1446533203125,-1108.4515380859375,-1177.63671875,-1083.7174072265625,-674.3562622070312,-1336.9853515625,-1527.3966064453125
316014.7349144834,-662.3707885742188,-1236.6800537109375,-1103.248291015625,-1172.298583984375,-1079.3463134765625,-670.8245849609375,-1331.478271484375,-1522.24365234375
316014.7389144834,-655.5787353515625,-1229.4488525390625,-1096.2288818359375,-1165.1312255859375,-1072.4044189453125,-664.14990234375,-1324.3170166015625,-1515.06396484375
316014.74291448336,-656.9281616210938,-1232.1226806640625,-1098.6624755859375,-1167.6292724609375,-1073.6768798828125,-664.355224609375,-1327.0792236328125,-1517.3646240234375
316014.7469144834,-664.5325927734375,-1240.424560546875,-1106.7154541015625,-1175.8826904296875,-1081.224853515625,-671.4750366210938,-1335.3037109375,-1525.422607421875
316014.7509144834,-666.6329345703125,-1241.85595703125,-1108.2423095703125,-1177.3575439453125,-1083.4111328125,-674.3157348632812,-1336.6700439453125,-1527.06982421875
316014.7549144834,-661.789306640625,-1235.9801025390625,-1102.6068115234375,-1171.565673828125,-1078.596435546875,-670.3199462890625,-1330.716796875,-1521.5037841796875
316014.75891448336,-655.2969970703125,-1229.3094482421875,-1096.0625,-1164.876953125,-1072.1661376953125,-663.9425659179688,-1324.0986328125,-1514.9749755859375
316014.7629144834,-657.1275024414062,-1232.6412353515625,-1099.1280517578125,-1168.0269775390625,-1074.07958984375,-664.5780639648438,-1327.7197265625,-1518.0789794921875
316014.7669144834,-664.9912109375,-1241.480224609375,-1107.6512451171875,-1176.738525390625,-1082.1041259765625,-671.9066772460938,-1336.66259765625,-1526.8260498046875
316014.77091448335,-667.457763671875,-1243.356689453125,-1109.5897216796875,-1178.71240234375,-1084.7086181640625,-675.088134765625,-1338.4122314453125,-1528.952880859375
316014.77491448337,-662.9503784179688,-1237.80859375,-1104.2899169921875,-1173.3162841796875,-1080.2666015625,-671.49853515625,-1332.7332763671875,-1523.6470947265625
316014.7789144834,-656.2372436523438,-1230.69287109375,-1097.3629150390625,-1166.200439453125,-1073.4715576171875,-664.8997802734375,-1325.6434326171875,-1516.533203125
316014.7829144834,-657.5746459960938,-1233.34716796875,-1099.782470703125,-1168.6424560546875,-1074.77197265625,-665.0936279296875,-1328.3857421875,-1518.804931640625
316014.78691448335,-665.6112060546875,-1242.2386474609375,-1108.359130859375,-1177.453369140625,-1082.9195556640625,-672.695556640625,-1337.15673828125,-1527.487060546875
316014.79091448337,-667.9353637695312,-1243.830322265625,-1110.0118408203125,-1179.1385498046875,-1085.2476806640625,-675.7181396484375,-1338.58154296875,-1529.2276611328125
316014.7949144834,-663.2800903320312,-1238.1253662109375,-1104.5372314453125,-1173.5235595703125,-1080.5943603515625,-671.9091796875,-1332.7977294921875,-1523.77099609375
316014.7989144834,-656.2322387695312,-1230.6143798828125,-1097.2296142578125,-1166.0904541015625,-1073.399169921875,-664.9962158203125,-1325.360595703125,-1516.283447265625
316014.80291448336,-657.3103637695312,-1233.0479736328125,-1099.433837890625,-1168.271240234375,-1074.435791015625,-664.9052734375,-1327.9481201171875,-1518.396240234375
316014.8069144834,-664.8053588867188,-1241.4637451171875,-1107.5413818359375,-1176.547607421875,-1082.01171875,-671.8467407226562,-1336.392822265625,-1526.7086181640625
316014.8109144834,-666.88623046875,-1242.686767578125,-1108.8807373046875,-1177.8560791015625,-1084.0186767578125,-674.5760498046875,-1337.58740234375,-1528.1085205078125
316014.8149144834,-662.3338623046875,-1236.751953125,-1103.293212890625,-1172.215576171875,-1079.2879638671875,-670.9144897460938,-1331.4957275390625,-1522.316650390625
316014.81891448336,-655.4783325195312,-1229.53076171875,-1096.2857666015625,-1165.11572265625,-1072.407958984375,-664.25927734375,-1324.2635498046875,-1515.15380859375
316014.8229144834,-656.854248046875,-1232.3074951171875,-1098.81982421875,-1167.72265625,-1073.7568359375,-664.3637084960938,-1327.2921142578125,-1517.71728515625
316014.8269144834,-664.4796142578125,-1240.8052978515625,-1107.0067138671875,-1176.1204833984375,-1081.463623046875,-671.4385375976562,-1335.79931640625,-1526.05810546875
316014.8309144834,-666.7927856445312,-1242.4659423828125,-1108.7098388671875,-1177.8326416015625,-1083.88330078125,-674.4976196289062,-1337.3126220703125,-1527.8612060546875
316014.83491448336,-662.4287719726562,-1236.931396484375,-1103.463134765625,-1172.427978515625,-1079.4847412109375,-671.0404052734375,-1331.6630859375,-1522.52099609375
316014.8389144834,-655.455322265625,-1229.389892578125,-1096.159912109375,-1164.9244384765625,-1072.3280029296875,-664.2813110351562,-1324.0611572265625,-1514.9071044921875
316014.8429144834,-656.467041015625,-1231.5806884765625,-1098.122314453125,-1166.9228515625,-1073.1392822265625,-664.04150390625,-1326.4012451171875,-1516.7186279296875
316014.84691448335,-663.8826293945312,-1240.016357421875,-1106.178955078125,-1175.232177734375,-1080.6927490234375,-670.863037109375,-1334.853515625,-1525.0809326171875
316014.85091448337,-666.855224609375,-1242.50634765625,-1108.69384765625,-1177.7491455078125,-1083.8477783203125,-674.5010986328125,-1337.276611328125,-1527.84521484375
316014.8549144834,-661.9611206054688,-1236.5621337890625,-1102.990966796875,-1171.96875,-1079.002685546875,-670.5158081054688,-1331.251953125,-1522.165771484375
316014.8589144834,-654.8883056640625,-1228.9677734375,-1095.6263427734375,-1164.509765625,-1071.7978515625,-663.6353149414062,-1323.7109375,-1514.599853515625
316014.8629144834,-656.3486328125,-1231.6561279296875,-1098.1158447265625,-1167.0787353515625,-1073.1478271484375,-663.9420776367188,-1326.5716552734375,-1516.93798828125
316014.86691448337,-664.1958618164062,-1240.37158203125,-1106.5306396484375,-1175.705810546875,-1081.0579833984375,-671.2452392578125,-1335.2452392578125,-1525.464599609375
316014.8709144834,-666.779296875,-1242.0977783203125,-1108.4066162109375,-1177.61328125,-1083.593017578125,-674.5465698242188,-1336.857421875,-1527.3460693359375
316014.8749144834,-661.5075073242188,-1235.69482421875,-1102.320556640625,-1171.4107666015625,-1078.358154296875,-670.2095336914062,-1330.3956298828125,-1521.217041015625
316014.8789144834,-654.6050415039062,-1228.4246826171875,-1095.2362060546875,-1164.2125244140625,-1071.4287109375,-663.4414672851562,-1323.2403564453125,-1514.043212890625
316014.8829144834,-655.8829956054688,-1231.004150390625,-1097.56884765625,-1166.6461181640625,-1072.634765625,-663.5528564453125,-1325.9437255859375,-1516.2425537109375
316014.8869144834,-663.7567138671875,-1239.7310791015625,-1105.9705810546875,-1175.2037353515625,-1080.536376953125,-670.9149780273438,-1334.583251953125,-1524.708740234375
316014.8909144834,-666.2926635742188,-1241.29833984375,-1107.701171875,-1176.954833984375,-1082.8880615234375,-674.0589599609375,-1336.115478515625,-1526.4307861328125
316014.8949144834,-661.6218872070312,-1235.4425048828125,-1102.1546630859375,-1171.2728271484375,-1078.163330078125,-670.2734985351562,-1330.19775390625,-1520.8408203125
316014.8989144834,-654.06298828125,-1227.4154052734375,-1094.3209228515625,-1163.294189453125,-1070.5098876953125,-662.8694458007812,-1322.2371826171875,-1512.84716796875
316014.9029144834,-655.42236328125,-1230.19873046875,-1096.7923583984375,-1165.8421630859375,-1071.890869140625,-663.0902709960938,-1325.1033935546875,-1515.2642822265625
316014.9069144834,-663.5429077148438,-1239.325439453125,-1105.5489501953125,-1174.7630615234375,-1080.126708984375,-670.605712890625,-1334.2294921875,-1524.248046875
316014.9109144834,-666.7398071289062,-1241.8154296875,-1108.1068115234375,-1177.3189697265625,-1083.335205078125,-674.4456787109375,-1336.5706787109375,-1526.9229736328125
316014.91491448344,-661.7322998046875,-1235.8662109375,-1102.3824462890625,-1171.440673828125,-1078.4810791015625,-670.3923950195312,-1330.4371337890625,-1521.260986328125
316014.9189144834,-654.3587036132812,-1228.1458740234375,-1094.87939453125,-1163.75732421875,-1071.1134033203125,-663.1956787109375,-1322.8631591796875,-1513.6719970703125
316014.9229144834,-655.410888671875,-1230.663330078125,-1097.1046142578125,-1166.0469970703125,-1072.16259765625,-663.0577392578125,-1325.550537109375,-1515.873291015625
316014.9269144834,-663.3829956054688,-1239.7181396484375,-1105.8046875,-1174.9654541015625,-1080.2816162109375,-670.453369140625,-1334.585205078125,-1524.793701171875
316014.93091448344,-665.9569702148438,-1241.4732666015625,-1107.6861572265625,-1176.90234375,-1082.818115234375,-673.664794921875,-1336.2823486328125,-1526.76904296875
316014.9349144834,-660.6861572265625,-1234.7620849609375,-1101.3887939453125,-1170.514404296875,-1077.3629150390625,-669.224853515625,-1329.561279296875,-1520.3197021484375
316014.9389144834,-653.385986328125,-1227.1142578125,-1093.9361572265625,-1162.840087890625,-1070.084716796875,-662.1829833984375,-1321.955322265625,-1512.6998291015625
316014.9429144834,-654.7074584960938,-1230.001953125,-1096.5076904296875,-1165.4539794921875,-1071.517578125,-662.4297485351562,-1325.00537109375,-1515.269287109375
316014.94691448344,-662.5951538085938,-1238.895263671875,-1105.0567626953125,-1174.2569580078125,-1079.5322265625,-669.7589111328125,-1333.891357421875,-1524.040283203125
316014.9509144834,-665.1890869140625,-1240.533935546875,-1106.8369140625,-1176.08251953125,-1082.000732421875,-673.0272827148438,-1335.3665771484375,-1525.8118896484375
316014.9549144834,-660.1615600585938,-1234.129150390625,-1100.770751953125,-1169.8580322265625,-1076.8353271484375,-668.8831176757812,-1328.8878173828125,-1519.581787109375
316014.95891448343,-652.436767578125,-1225.9970703125,-1092.838134765625,-1161.771484375,-1069.1051025390625,-661.358154296875,-1320.8642578125,-1511.4927978515625
316014.96291448345,-654.0339965820312,-1229.1065673828125,-1095.6453857421875,-1164.6566162109375,-1070.7786865234375,-661.8037719726562,-1324.1356201171875,-1514.322021484375
316014.9669144834,-662.3138427734375,-1238.3502197265625,-1104.545166015625,-1173.8013916015625,-1079.16845703125,-669.6025390625,-1333.2618408203125,-1523.341796875
316014.9709144834,-664.8483276367188,-1240.077880859375,-1106.398193359375,-1175.6978759765625,-1081.7059326171875,-672.8798828125,-1334.8310546875,-1525.1907958984375
316014.97491448343,-659.9417724609375,-1233.9451904296875,-1100.5814208984375,-1169.7420654296875,-1076.7379150390625,-668.7482299804688,-1328.70849609375,-1519.3330078125
316014.97891448345,-652.4722290039062,-1225.9371337890625,-1092.78662109375,-1161.8603515625,-1069.1080322265625,-661.4046020507812,-1320.69384765625,-1511.323486328125
316014.9829144834,-653.966552734375,-1228.8223876953125,-1095.3665771484375,-1164.587158203125,-1070.557861328125,-661.7982788085938,-1323.590576171875,-1513.7724609375
316014.9869144834,-662.4207763671875,-1238.1329345703125,-1104.38037109375,-1173.811279296875,-1078.99462890625,-669.6934814453125,-1332.8756103515625,-1522.877685546875
316014.99091448344,-664.8598022460938,-1239.7056884765625,-1106.095458984375,-1175.48046875,-1081.3272705078125,-672.7725219726562,-1334.3759765625,-1524.621337890625
316014.9949144834,-660.119140625,-1233.636474609375,-1100.35205078125,-1169.5782470703125,-1076.45263671875,-668.9060668945312,-1328.2283935546875,-1518.738037109375
316014.9989144834,-652.7565307617188,-1225.8072509765625,-1092.7191162109375,-1161.8294677734375,-1068.985595703125,-661.7003784179688,-1320.489501953125,-1510.9676513671875
316015.0029144834,-653.793701171875,-1228.4576416015625,-1095.037353515625,-1164.2574462890625,-1070.1407470703125,-661.6014404296875,-1323.298828125,-1513.374755859375
316015.00691448344,-661.897705078125,-1237.69775390625,-1103.9117431640625,-1173.3846435546875,-1078.4490966796875,-669.1309204101562,-1332.536865234375,-1522.552001953125
316015.0109144834,-664.5970458984375,-1239.765625,-1106.0794677734375,-1175.4720458984375,-1081.2498779296875,-672.5037231445312,-1334.63623046875,-1524.916015625
316015.0149144834,-659.25927734375,-1233.0579833984375,-1099.735595703125,-1168.9437255859375,-1075.82666015625,-668.0702514648438,-1327.8311767578125,-1518.404296875
316015.0189144834,-651.8532104492188,-1225.08984375,-1092.0042724609375,-1161.0615234375,-1068.3486328125,-660.9649658203125,-1319.7152099609375,-1510.379150390625
316015.0229144834,-652.7215576171875,-1227.2740478515625,-1093.9366455078125,-1163.044921875,-1069.089599609375,-660.57177734375,-1322.0452880859375,-1512.210693359375
316015.0269144834,-660.7835693359375,-1236.23193359375,-1102.5777587890625,-1171.88232421875,-1077.1591796875,-668.0387573242188,-1330.9716796875,-1520.9542236328125
316015.0309144834,-663.8786010742188,-1238.634521484375,-1105.0743408203125,-1174.38134765625,-1080.3265380859375,-671.80126953125,-1333.246826171875,-1523.5745849609375
316015.0349144834,-659.2353515625,-1232.838623046875,-1099.563720703125,-1168.6864013671875,-1075.7098388671875,-668.0672607421875,-1327.3560791015625,-1518.01611328125
316015.0389144834,-651.4930419921875,-1224.5228271484375,-1091.4761962890625,-1160.43408203125,-1067.8055419921875,-660.4873046875,-1319.1380615234375,-1509.708251953125
316015.0429144834,-652.7964477539062,-1227.216064453125,-1093.8812255859375,-1162.916015625,-1069.0325927734375,-660.5452880859375,-1321.994873046875,-1512.0528564453125
316015.0469144834,-661.1467895507812,-1236.524169921875,-1102.8660888671875,-1172.1536865234375,-1077.4368896484375,-668.30859375,-1331.307373046875,-1521.218994140625
316015.0509144834,-664.1858520507812,-1238.8023681640625,-1105.2606201171875,-1174.5806884765625,-1080.5164794921875,-672.037109375,-1333.5216064453125,-1523.7225341796875
316015.0549144834,-659.3197631835938,-1232.8720703125,-1099.584716796875,-1168.7623291015625,-1075.7177734375,-668.0252685546875,-1327.493408203125,-1518.1214599609375
316015.0589144834,-651.5669555664062,-1224.76806640625,-1091.64306640625,-1160.607421875,-1067.9609375,-660.486328125,-1319.3963623046875,-1510.06494140625
316015.0629144834,-653.1511840820312,-1227.793212890625,-1094.369384765625,-1163.335693359375,-1069.57421875,-660.9624633789062,-1322.5533447265625,-1512.6888427734375
316015.0669144834,-661.4375610351562,-1237.07080078125,-1103.32666015625,-1172.5078125,-1077.982421875,-668.6812744140625,-1331.85595703125,-1521.7950439453125
316015.0709144834,-664.571044921875,-1239.4727783203125,-1105.855224609375,-1175.0552978515625,-1081.115966796875,-672.3892822265625,-1334.258544921875,-1524.451904296875
316015.0749144834,-659.7958984375,-1233.506591796875,-1100.20263671875,-1169.2235107421875,-1076.3203125,-668.4539794921875,-1328.1458740234375,-1518.741455078125
316015.0789144834,-652.3887939453125,-1225.770263671875,-1092.6427001953125,-1161.4981689453125,-1069.0120849609375,-661.3651123046875,-1320.274169921875,-1511.022705078125
316015.0829144834,-654.011474609375,-1228.8818359375,-1095.493896484375,-1164.44384765625,-1070.71728515625,-661.8507080078125,-1323.505126953125,-1513.826904296875
316015.0869144834,-662.0950317382812,-1237.8746337890625,-1104.177978515625,-1173.43212890625,-1078.8038330078125,-669.2742919921875,-1332.664794921875,-1522.7403564453125
316015.0909144834,-664.9202880859375,-1239.909423828125,-1106.311767578125,-1175.6234130859375,-1081.6435546875,-672.8099975585938,-1334.6417236328125,-1524.9835205078125
316015.0949144834,-660.1580810546875,-1233.936767578125,-1100.6083984375,-1169.68310546875,-1076.8314208984375,-668.8886108398438,-1328.5830078125,-1519.2310791015625
316015.0989144834,-652.737548828125,-1226.094482421875,-1092.9215087890625,-1161.751953125,-1069.2789306640625,-661.4920043945312,-1320.853271484375,-1511.454833984375
316015.1029144834,-654.4871215820312,-1229.284423828125,-1095.8046875,-1164.7620849609375,-1071.041015625,-662.10400390625,-1324.2105712890625,-1514.2930908203125
316015.1069144834,-662.6031494140625,-1238.322265625,-1104.5177001953125,-1173.68896484375,-1079.2080078125,-669.6075439453125,-1333.27734375,-1523.1854248046875
316015.1109144834,-665.3014526367188,-1240.26220703125,-1106.55810546875,-1175.6903076171875,-1081.92578125,-673.0467529296875,-1335.1103515625,-1525.3172607421875
316015.1149144834,-660.7636108398438,-1234.368896484375,-1101.01953125,-1170.039794921875,-1077.22900390625,-669.3801879882812,-1329.1441650390625,-1519.642333984375
316015.11891448335,-653.5593872070312,-1226.60009765625,-1093.506103515625,-1162.3724365234375,-1069.866943359375,-662.3028564453125,-1321.4727783203125,-1511.9158935546875
316015.12291448336,-654.6539916992188,-1229.0361328125,-1095.6903076171875,-1164.59716796875,-1070.8966064453125,-662.2169189453125,-1324.0701904296875,-1514.018798828125
316015.1269144834,-662.1594848632812,-1237.3895263671875,-1103.7703857421875,-1172.9075927734375,-1078.43310546875,-669.2158203125,-1332.363525390625,-1522.1292724609375
316015.1309144834,-664.5770263671875,-1238.9517822265625,-1105.4759521484375,-1174.6527099609375,-1080.8067626953125,-672.29541015625,-1333.7794189453125,-1523.8289794921875
316015.13491448335,-659.6489868164062,-1232.8970947265625,-1099.70263671875,-1168.7618408203125,-1075.892578125,-668.2466430664062,-1327.65185546875,-1518.0545654296875
316015.13891448337,-652.7315063476562,-1225.69384765625,-1092.6097412109375,-1161.505615234375,-1068.9757080078125,-661.4715576171875,-1320.5400390625,-1510.9432373046875
316015.1429144834,-654.570068359375,-1228.9427490234375,-1095.5809326171875,-1164.5772705078125,-1070.8216552734375,-662.1984252929688,-1323.8892822265625,-1513.8653564453125
316015.1469144834,-662.5961303710938,-1237.7232666015625,-1104.10302734375,-1173.291259765625,-1078.7608642578125,-669.6155395507812,-1332.6998291015625,-1522.468017578125
316015.15091448335,-664.786376953125,-1238.95068359375,-1105.45751953125,-1174.68408203125,-1080.7786865234375,-672.392822265625,-1333.8553466796875,-1523.79345703125
316015.15491448337,-660.2490234375,-1233.2537841796875,-1100.02880859375,-1169.1605224609375,-1076.2489013671875,-668.71826171875,-1328.0584716796875,-1518.2833251953125
316015.1589144834,-653.8441162109375,-1226.62109375,-1093.506591796875,-1162.5263671875,-1069.9273681640625,-662.5506591796875,-1321.351318359375,-1511.6632080078125
316015.1629144834,-654.8853149414062,-1228.980712890625,-1095.650390625,-1164.7470703125,-1070.9390869140625,-662.5172119140625,-1323.873291015625,-1513.685546875
316015.16691448336,-662.6820678710938,-1237.711181640625,-1104.1041259765625,-1173.3846435546875,-1078.8482666015625,-669.7733764648438,-1332.7037353515625,-1522.3231201171875
316015.1709144834,-664.7783813476562,-1239.09716796875,-1105.5814208984375,-1174.8470458984375,-1080.95703125,-672.5307006835938,-1333.9537353515625,-1523.921875
316015.1749144834,-660.4173583984375,-1233.612548828125,-1100.3565673828125,-1169.4493408203125,-1076.6085205078125,-669.074462890625,-1328.2222900390625,-1518.631103515625
316015.1789144834,-653.4569702148438,-1226.461669921875,-1093.3641357421875,-1162.322998046875,-1069.7884521484375,-662.3958129882812,-1321.047119140625,-1511.5806884765625
316015.18291448336,-654.9617309570312,-1229.4873046875,-1096.1124267578125,-1165.18017578125,-1071.3912353515625,-662.7115478515625,-1324.3489990234375,-1514.409912109375
316015.1869144834,-662.1610107421875,-1237.558837890625,-1103.90576171875,-1173.1343994140625,-1078.66943359375,-669.3677368164062,-1332.493896484375,-1522.3421630859375
316015.1909144834,-664.1009521484375,-1238.6544189453125,-1105.1497802734375,-1174.3154296875,-1080.578857421875,-671.9886474609375,-1333.5096435546875,-1523.5850830078125
316015.19491448335,-659.5181274414062,-1232.9405517578125,-1099.7120361328125,-1168.7578125,-1075.985595703125,-668.2716064453125,-1327.705322265625,-1518.1185302734375
316015.19891448336,-652.996826171875,-1226.12646484375,-1093.0294189453125,-1162.019287109375,-1069.500244140625,-662.0410766601562,-1320.852294921875,-1511.3099365234375
316015.2029144834,-654.7984008789062,-1229.2249755859375,-1095.9256591796875,-1164.9578857421875,-1071.23583984375,-662.6680908203125,-1324.2196044921875,-1514.0802001953125
316015.2069144834,-662.3313598632812,-1237.5283203125,-1104.0115966796875,-1173.1962890625,-1078.7742919921875,-669.6205444335938,-1332.5823974609375,-1522.2237548828125
316015.21091448335,-664.2308349609375,-1238.6414794921875,-1105.20166015625,-1174.4462890625,-1080.6368408203125,-672.1315307617188,-1333.5870361328125,-1523.545654296875
316015.21491448337,-659.9982299804688,-1233.4061279296875,-1100.1712646484375,-1169.327392578125,-1076.462158203125,-668.76123046875,-1328.1639404296875,-1518.5277099609375
316015.2189144833,-653.5908203125,-1226.522705078125,-1093.4835205078125,-1162.557373046875,-1069.8924560546875,-662.4817504882812,-1321.2708740234375,-1511.606201171875
316015.22291448334,-654.8912963867188,-1229.067138671875,-1095.8316650390625,-1164.9869384765625,-1071.1090087890625,-662.6156005859375,-1324.0191650390625,-1513.827392578125
316015.22691448336,-662.222412109375,-1237.31005859375,-1103.796875,-1173.032470703125,-1078.573974609375,-669.4126586914062,-1332.3170166015625,-1521.9654541015625
316015.23091448337,-664.2528076171875,-1238.637939453125,-1105.2142333984375,-1174.4517822265625,-1080.6907958984375,-672.1444702148438,-1333.560546875,-1523.501220703125
316015.2349144833,-659.6420288085938,-1232.89111328125,-1099.7735595703125,-1168.99365234375,-1076.08349609375,-668.4005126953125,-1327.7877197265625,-1518.04150390625
316015.23891448334,-653.148681640625,-1226.1309814453125,-1093.1168212890625,-1162.24658203125,-1069.585205078125,-662.1489868164062,-1320.92822265625,-1511.238037109375
316015.24291448336,-654.62353515625,-1228.8807373046875,-1095.640380859375,-1164.799072265625,-1070.987060546875,-662.5046997070312,-1323.9012451171875,-1513.6700439453125
316015.2469144834,-661.7822875976562,-1236.8299560546875,-1103.3411865234375,-1172.7166748046875,-1078.1578369140625,-669.0699462890625,-1331.9208984375,-1521.5816650390625
316015.25091448333,-663.48291015625,-1237.709228515625,-1104.31396484375,-1173.7054443359375,-1079.8284912109375,-671.45654296875,-1332.5858154296875,-1522.5869140625
316015.25491448335,-658.5169067382812,-1231.502685546875,-1098.401123046875,-1167.6207275390625,-1074.7470703125,-667.36181640625,-1326.265869140625,-1516.499755859375
316015.25891448336,-651.942138671875,-1224.5997314453125,-1091.64697265625,-1160.69482421875,-1068.036376953125,-660.8834838867188,-1319.4903564453125,-1509.6497802734375
316015.2629144834,-653.3994750976562,-1227.33203125,-1094.16455078125,-1163.183837890625,-1069.3953857421875,-661.08935546875,-1322.505859375,-1512.164306640625
316015.26691448333,-660.6881713867188,-1235.4749755859375,-1102.02978515625,-1171.1934814453125,-1076.81640625,-667.87890625,-1330.595458984375,-1520.1983642578125
316015.27091448335,-662.2199096679688,-1236.38232421875,-1103.00341796875,-1172.1995849609375,-1078.4815673828125,-670.1865844726562,-1331.2689208984375,-1521.26953125
316015.27491448337,-657.33984375,-1230.5140380859375,-1097.3544921875,-1166.441162109375,-1073.625,-666.0958251953125,-1325.3646240234375,-1515.66748046875
316015.2789144834,-651.4710083007812,-1224.349853515625,-1091.3177490234375,-1160.3321533203125,-1067.6507568359375,-660.3214721679688,-1319.2669677734375,-1509.50341796875
316015.28291448334,-653.6742553710938,-1227.7552490234375,-1094.5357666015625,-1163.5894775390625,-1069.715087890625,-661.3121337890625,-1322.8536376953125,-1512.6163330078125
316015.28691448335,-660.55029296875,-1235.2601318359375,-1101.8568115234375,-1171.094970703125,-1076.609619140625,-667.6995849609375,-1330.3326416015625,-1519.9930419921875
316015.29091448337,-661.78076171875,-1235.7508544921875,-1102.46337890625,-1171.7049560546875,-1077.8740234375,-669.6010131835938,-1330.704345703125,-1520.6844482421875
316015.2949144834,-656.9811401367188,-1230.134765625,-1097.0372314453125,-1166.074462890625,-1073.270263671875,-665.7611083984375,-1325.0064697265625,-1515.2857666015625
316015.29891448334,-651.8897094726562,-1225.0008544921875,-1091.94775390625,-1160.912109375,-1068.2462158203125,-660.821044921875,-1319.98193359375,-1510.1893310546875
316015.30291448336,-653.9305419921875,-1228.2117919921875,-1094.98291015625,-1163.9761962890625,-1070.1531982421875,-661.6353759765625,-1323.440185546875,-1513.1505126953125
316015.3069144834,-660.3489379882812,-1235.1787109375,-1101.803955078125,-1170.951171875,-1076.549072265625,-667.5891723632812,-1330.360107421875,-1520.0079345703125
316015.3109144834,-661.2876586914062,-1235.317626953125,-1102.0706787109375,-1171.2529296875,-1077.54736328125,-669.2932739257812,-1330.313720703125,-1520.28125
316015.31491448334,-656.5155029296875,-1229.5987548828125,-1096.5225830078125,-1165.6573486328125,-1072.8355712890625,-665.37890625,-1324.432861328125,-1514.6837158203125
316015.31891448336,-651.0663452148438,-1224.1265869140625,-1091.0255126953125,-1160.1173095703125,-1067.3734130859375,-659.9168090820312,-1319.001708984375,-1509.277587890625
316015.3229144834,-653.6123046875,-1227.9605712890625,-1094.6905517578125,-1163.7928466796875,-1069.9254150390625,-661.3656005859375,-1323.0914306640625,-1512.940185546875
316015.3269144834,-660.1760864257812,-1235.1053466796875,-1101.7154541015625,-1170.9276123046875,-1076.504638671875,-667.4082641601562,-1330.34912109375,-1520.0474853515625
316015.33091448335,-661.230224609375,-1235.3426513671875,-1102.0677490234375,-1171.3038330078125,-1077.55029296875,-669.1359252929688,-1330.453125,-1520.4326171875
316015.33491448336,-656.4285888671875,-1229.4822998046875,-1096.4267578125,-1165.643798828125,-1072.712158203125,-665.1605834960938,-1324.4268798828125,-1514.74169921875
316015.3389144834,-650.6781616210938,-1223.4385986328125,-1090.470947265625,-1159.6571044921875,-1066.806396484375,-659.5140991210938,-1318.378662109375,-1508.62353515625
316015.34291448334,-652.416259765625,-1226.3997802734375,-1093.2412109375,-1162.4224853515625,-1068.4810791015625,-660.1455688476562,-1321.5516357421875,-1511.31591796875
316015.34691448335,-659.3247680664062,-1234.10009765625,-1100.7607421875,-1170.0753173828125,-1075.5289306640625,-666.5594482421875,-1329.33740234375,-1519.043212890625
316015.35091448337,-660.754638671875,-1234.9434814453125,-1101.6920166015625,-1171.0145263671875,-1077.1221923828125,-668.6782836914062,-1330.1182861328125,-1520.15283203125
316015.3549144834,-656.4085693359375,-1229.8974609375,-1096.75,-1165.9825439453125,-1073.012451171875,-665.2260131835938,-1325.00244140625,-1515.378173828125
316015.35891448334,-651.5294799804688,-1225.00537109375,-1091.85986328125,-1161.095947265625,-1068.1588134765625,-660.3729248046875,-1320.187255859375,-1510.570556640625
316015.36291448335,-653.80615234375,-1228.56201171875,-1095.213134765625,-1164.4498291015625,-1070.382568359375,-661.4955444335938,-1323.9608154296875,-1513.90185546875
316015.3669144833,-660.3994140625,-1235.810791015625,-1102.281005859375,-1171.5836181640625,-1076.9832763671875,-667.5291748046875,-1331.348388671875,-1521.119140625
316015.3709144833,-661.6213989257812,-1236.2684326171875,-1102.82763671875,-1172.1536865234375,-1078.163330078125,-669.3142700195312,-1331.74853515625,-1521.756591796875
316015.37491448334,-656.876708984375,-1230.58642578125,-1097.28955078125,-1166.57763671875,-1073.455078125,-665.4168701171875,-1325.8671875,-1516.2030029296875
316015.37891448336,-651.2971801757812,-1224.993408203125,-1091.7139892578125,-1161.005126953125,-1068.0313720703125,-660.1240844726562,-1320.145263671875,-1510.5450439453125
316015.3829144833,-653.4529418945312,-1228.21728515625,-1094.8134765625,-1164.132080078125,-1070.0677490234375,-661.2042236328125,-1323.460205078125,-1513.418701171875
316015.38691448333,-659.6699829101562,-1234.8829345703125,-1101.384765625,-1170.7852783203125,-1076.183837890625,-666.9346923828125,-1330.1173095703125,-1519.91552734375
316015.39091448335,-661.0878295898438,-1235.551513671875,-1102.1776123046875,-1171.6051025390625,-1077.65673828125,-669.0349731445312,-1330.744384765625,-1520.7938232421875
316015.39491448336,-656.186279296875,-1229.7396240234375,-1096.5526123046875,-1165.90966796875,-1072.8695068359375,-665.0067138671875,-1324.8575439453125,-1515.1878662109375
316015.3989144833,-650.8775024414062,-1224.2879638671875,-1091.1209716796875,-1160.43408203125,-1067.558349609375,-659.8958129882812,-1319.31591796875,-1509.6727294921875
316015.40291448333,-653.2855834960938,-1227.8505859375,-1094.5401611328125,-1163.8623046875,-1069.8594970703125,-661.1832885742188,-1323.072021484375,-1512.95458984375
316015.40691448335,-660.33447265625,-1235.4620361328125,-1102.021728515625,-1171.4317626953125,-1076.8973388671875,-667.7210083007812,-1330.7208251953125,-1520.442138671875
316015.41091448336,-661.7918090820312,-1236.2498779296875,-1102.8890380859375,-1172.35546875,-1078.463623046875,-669.8683471679688,-1331.46923828125,-1521.4818115234375
316015.4149144833,-657.0325927734375,-1230.599365234375,-1097.3919677734375,-1166.804931640625,-1073.7618408203125,-665.87548828125,-1325.8726806640625,-1516.177001953125
316015.41891448334,-651.7108154296875,-1225.26171875,-1092.0477294921875,-1161.416748046875,-1068.4940185546875,-660.6317138671875,-1320.551513671875,-1510.9097900390625
316015.42291448335,-653.9475708007812,-1228.741943359375,-1095.3021240234375,-1164.7291259765625,-1070.6893310546875,-661.7578125,-1324.065673828125,-1514.0751953125
316015.42691448337,-659.7159423828125,-1234.9759521484375,-1101.4072265625,-1170.8421630859375,-1076.3487548828125,-667.0236206054688,-1330.3116455078125,-1520.0814208984375
316015.4309144833,-660.78955078125,-1235.314697265625,-1101.8568115234375,-1171.1959228515625,-1077.495361328125,-668.8206787109375,-1330.54248046875,-1520.5660400390625
316015.43491448334,-656.3356323242188,-1229.885498046875,-1096.6400146484375,-1165.8397216796875,-1073.0814208984375,-665.2040405273438,-1325.0224609375,-1515.3487548828125
316015.43891448335,-651.0488891601562,-1224.3719482421875,-1091.2568359375,-1160.4310302734375,-1067.7467041015625,-660.0941162109375,-1319.561767578125,-1509.8121337890625
316015.4429144833,-653.2576293945312,-1227.7861328125,-1094.4967041015625,-1163.6763916015625,-1069.8614501953125,-661.1467895507812,-1323.182373046875,-1512.983154296875
316015.4469144833,-659.6934814453125,-1234.9649658203125,-1101.482177734375,-1170.7237548828125,-1076.396240234375,-667.0935668945312,-1330.4056396484375,-1520.1138916015625
316015.45091448334,-661.1103515625,-1235.71728515625,-1102.35595703125,-1171.6141357421875,-1077.87451171875,-669.1853637695312,-1331.1605224609375,-1521.1676025390625
316015.45491448336,-656.49951171875,-1230.17626953125,-1096.9813232421875,-1166.1190185546875,-1073.2977294921875,-665.3853759765625,-1325.595947265625,-1515.831298828125
316015.4589144833,-651.0673828125,-1224.6126708984375,-1091.4356689453125,-1160.5673828125,-1067.8770751953125,-660.119140625,-1319.907470703125,-1510.2083740234375
316015.46291448333,-653.1607055664062,-1227.7257080078125,-1094.390380859375,-1163.5799560546875,-1069.7750244140625,-661.0383911132812,-1323.1888427734375,-1512.9710693359375
316015.4669144833,-659.7678833007812,-1234.8819580078125,-1101.4122314453125,-1170.7027587890625,-1076.312255859375,-667.0595703125,-1330.379638671875,-1520.0
316015.4709144833,-661.165283203125,-1235.5164794921875,-1102.150634765625,-1171.4871826171875,-1077.7467041015625,-669.1763916015625,-1330.8577880859375,-1520.7733154296875
316015.4749144833,-656.3556518554688,-1229.7200927734375,-1096.5390625,-1165.8297119140625,-1072.9754638671875,-665.2554931640625,-1324.896484375,-1515.1263427734375
316015.47891448333,-650.8575439453125,-1224.088134765625,-1090.946044921875,-1160.1641845703125,-1067.4908447265625,-659.9557495117188,-1319.18359375,-1509.4158935546875
316015.4829144833,-652.6201171875,-1226.934814453125,-1093.6444091796875,-1162.8551025390625,-1069.1180419921875,-660.603759765625,-1322.1646728515625,-1511.885009765625
316015.4869144833,-658.9115600585938,-1233.6080322265625,-1100.233154296875,-1169.5386962890625,-1075.2037353515625,-666.3001708984375,-1328.9217529296875,-1518.3883056640625
316015.4909144833,-660.023681640625,-1233.75439453125,-1100.52392578125,-1169.8834228515625,-1076.1763916015625,-668.0807495117188,-1329.0081787109375,-1518.6390380859375
316015.49491448334,-655.7840576171875,-1228.552001953125,-1095.4764404296875,-1164.7940673828125,-1071.9427490234375,-664.6649780273438,-1323.6954345703125,-1513.6275634765625
316015.4989144833,-650.541259765625,-1223.326171875,-1090.2276611328125,-1159.4957275390625,-1066.7694091796875,-659.5445556640625,-1318.459716796875,-1508.4661865234375
316015.5029144833,-652.8359375,-1226.7440185546875,-1093.5010986328125,-1162.8021240234375,-1068.8682861328125,-660.5272827148438,-1322.211181640625,-1511.6746826171875
316015.5069144833,-659.2488403320312,-1233.8763427734375,-1100.489501953125,-1169.74658203125,-1075.328125,-666.401611328125,-1329.46533203125,-1518.760009765625
316015.51091448334,-660.6137084960938,-1234.629638671875,-1101.3067626953125,-1170.5074462890625,-1076.8408203125,-668.5623779296875,-1330.0673828125,-1519.7027587890625
316015.51491448336,-655.9474487304688,-1228.9346923828125,-1095.8216552734375,-1164.9588623046875,-1072.174560546875,-664.7593994140625,-1324.303955078125,-1514.2525634765625
316015.5189144833,-650.734619140625,-1223.509033203125,-1090.4964599609375,-1159.6207275390625,-1066.9412841796875,-659.7554321289062,-1318.818359375,-1508.8089599609375
316015.5229144833,-653.0682373046875,-1227.170166015625,-1093.92626953125,-1163.1009521484375,-1069.29541015625,-661.0018920898438,-1322.578369140625,-1512.1737060546875
316015.52691448334,-659.160400390625,-1233.8978271484375,-1100.49951171875,-1169.72314453125,-1075.3880615234375,-666.5364990234375,-1329.3609619140625,-1518.7874755859375
316015.53091448336,-660.271484375,-1234.260009765625,-1100.9395751953125,-1170.1102294921875,-1076.5220947265625,-668.33251953125,-1329.5302734375,-1519.2740478515625
316015.5349144833,-655.9639282226562,-1228.958251953125,-1095.8612060546875,-1164.98388671875,-1072.22607421875,-664.851318359375,-1324.1800537109375,-1514.2181396484375
316015.53891448333,-650.9329833984375,-1223.9022216796875,-1090.82666015625,-1159.844482421875,-1067.2554931640625,-660.03515625,-1319.0806884765625,-1509.22265625
316015.54291448335,-652.694580078125,-1226.955322265625,-1093.6529541015625,-1162.7047119140625,-1069.0111083984375,-660.690185546875,-1322.2081298828125,-1511.92041015625
316015.54691448336,-659.5010986328125,-1234.3648681640625,-1100.86767578125,-1170.0538330078125,-1075.7587890625,-666.8512573242188,-1329.6522216796875,-1519.1341552734375
316015.5509144833,-661.3556518554688,-1235.405029296875,-1102.0706787109375,-1171.2828369140625,-1077.623779296875,-669.3936767578125,-1330.6634521484375,-1520.4022216796875
316015.55491448333,-657.08251953125,-1230.13330078125,-1097.0277099609375,-1166.199951171875,-1073.3726806640625,-665.9564208984375,-1325.296142578125,-1515.3641357421875
316015.55891448335,-651.62939453125,-1224.605224609375,-1091.5330810546875,-1160.6668701171875,-1067.9869384765625,-660.691162109375,-1319.7047119140625,-1509.8446044921875
316015.56291448337,-653.8296508789062,-1228.17333984375,-1094.8724365234375,-1164.03515625,-1070.235107421875,-661.8262329101562,-1323.36767578125,-1513.1455078125
316015.5669144833,-660.70263671875,-1235.769775390625,-1102.2705078125,-1171.567626953125,-1077.1651611328125,-668.18115234375,-1330.9700927734375,-1520.5999755859375
316015.57091448334,-661.7717895507812,-1236.05908203125,-1102.6591796875,-1171.90185546875,-1078.2197265625,-669.90380859375,-1331.1600341796875,-1521.0201416015625
316015.57491448335,-656.9581298828125,-1230.1182861328125,-1096.9608154296875,-1166.048583984375,-1073.32470703125,-665.8740234375,-1325.1182861328125,-1515.2203369140625
316015.57891448337,-651.4160766601562,-1224.3839111328125,-1091.2918701171875,-1160.3455810546875,-1067.774169921875,-660.5577392578125,-1319.2105712890625,-1509.4454345703125
316015.5829144833,-653.84912109375,-1228.054443359375,-1094.7769775390625,-1163.8558349609375,-1070.1722412109375,-661.8952026367188,-1323.096435546875,-1512.875732421875
316015.58691448334,-660.6122436523438,-1235.510498046875,-1102.0792236328125,-1171.3062744140625,-1076.9818115234375,-668.1162109375,-1330.637939453125,-1520.269775390625
316015.59091448336,-661.6298828125,-1235.8616943359375,-1102.5323486328125,-1171.761474609375,-1078.1033935546875,-669.8598022460938,-1330.9046630859375,-1520.83837890625
316015.5949144833,-656.768310546875,-1230.0318603515625,-1096.8887939453125,-1166.0419921875,-1073.3011474609375,-665.8809814453125,-1324.9239501953125,-1515.2127685546875
316015.59891448333,-651.1593017578125,-1224.3084716796875,-1091.204345703125,-1160.30810546875,-1067.7611083984375,-660.5078125,-1319.1561279296875,-1509.4583740234375
316015.60291448334,-653.05224609375,-1227.4244384765625,-1094.1610107421875,-1163.28076171875,-1069.5892333984375,-661.187255859375,-1322.6363525390625,-1512.3701171875
316015.60691448336,-659.9962158203125,-1235.0244140625,-1101.5860595703125,-1170.80029296875,-1076.5010986328125,-667.481201171875,-1330.314697265625,-1519.89306640625
316015.6109144833,-661.521484375,-1235.9237060546875,-1102.5762939453125,-1171.826416015625,-1078.1353759765625,-669.7129516601562,-1331.0330810546875,-1521.0191650390625
316015.61491448333,-656.7183227539062,-1230.187255859375,-1097.0137939453125,-1166.181884765625,-1073.3631591796875,-665.7276611328125,-1325.228759765625,-1515.5380859375
316015.6189144833,-650.842529296875,-1224.153076171875,-1091.008544921875,-1160.15673828125,-1067.4664306640625,-659.9942016601562,-1319.1231689453125,-1509.5048828125
316015.6229144833,-653.2536010742188,-1227.935546875,-1094.5811767578125,-1163.71142578125,-1069.9129638671875,-661.358642578125,-1323.095947265625,-1512.9920654296875
316015.6269144833,-660.3754272460938,-1235.7413330078125,-1102.235107421875,-1171.4931640625,-1077.078125,-667.9938354492188,-1330.9716796875,-1520.6644287109375
316015.63091448334,-662.0525512695312,-1236.6015625,-1103.2462158203125,-1172.59326171875,-1078.747802734375,-670.3619384765625,-1331.7755126953125,-1521.72412109375
316015.6349144833,-657.3798217773438,-1230.9041748046875,-1097.7576904296875,-1167.1112060546875,-1074.114501953125,-666.5894165039062,-1325.8607177734375,-1516.2020263671875
316015.6389144833,-651.6024169921875,-1224.9659423828125,-1091.8328857421875,-1161.0369873046875,-1068.336669921875,-661.0103759765625,-1319.8016357421875,-1510.1978759765625
316015.6429144833,-652.8164672851562,-1227.3614501953125,-1094.047607421875,-1163.2432861328125,-1069.4052734375,-661.0503540039062,-1322.41455078125,-1512.2791748046875
316015.64691448334,-659.4931030273438,-1234.6312255859375,-1101.201416015625,-1170.510986328125,-1076.0489501953125,-667.1325073242188,-1329.83251953125,-1519.4583740234375
316015.6509144833,-660.9319458007812,-1235.3436279296875,-1102.0257568359375,-1171.36181640625,-1077.538818359375,-669.2098388671875,-1330.5140380859375,-1520.4346923828125
316015.6549144833,-656.5374755859375,-1230.02490234375,-1096.868408203125,-1166.1519775390625,-1073.208740234375,-665.6821899414062,-1325.04736328125,-1515.34375
316015.6589144833,-651.0858154296875,-1224.3529052734375,-1091.2568359375,-1160.5224609375,-1067.710693359375,-660.3964233398438,-1319.37841796875,-1509.67529296875
316015.66291448334,-652.8798828125,-1227.362060546875,-1094.1160888671875,-1163.3631591796875,-1069.411865234375,-661.035888671875,-1322.665771484375,-1512.41357421875
316015.6669144833,-659.4796142578125,-1234.6131591796875,-1101.242919921875,-1170.598388671875,-1075.99560546875,-667.0680541992188,-1330.0299072265625,-1519.5858154296875
316015.6709144833,-661.3746337890625,-1235.8372802734375,-1102.517822265625,-1171.8658447265625,-1077.9005126953125,-669.453125,-1331.18603515625,-1521.0931396484375
316015.67491448333,-656.7293090820312,-1230.2056884765625,-1097.0711669921875,-1166.3463134765625,-1073.248779296875,-665.5977172851562,-1325.3941650390625,-1515.6944580078125
316015.67891448335,-651.0014038085938,-1224.2039794921875,-1091.138427734375,-1160.35205078125,-1067.4683837890625,-660.0736694335938,-1319.2840576171875,-1509.6392822265625
316015.6829144833,-652.9923095703125,-1227.3280029296875,-1094.113037109375,-1163.302734375,-1069.3173828125,-660.8820190429688,-1322.5869140625,-1512.466064453125
316015.6869144833,-659.6979370117188,-1234.6116943359375,-1101.2293701171875,-1170.5084228515625,-1075.9345703125,-666.9386596679688,-1329.9100341796875,-1519.6168212890625
316015.69091448333,-660.8035888671875,-1234.8170166015625,-1101.5311279296875,-1170.833251953125,-1076.893798828125,-668.6093139648438,-1330.032958984375,-1519.9395751953125
316015.69491448335,-656.4170532226562,-1229.370849609375,-1096.2843017578125,-1165.4659423828125,-1072.475341796875,-665.0536499023438,-1324.5078125,-1514.6741943359375
316015.6989144833,-650.81005859375,-1223.5889892578125,-1090.576416015625,-1159.736083984375,-1066.892822265625,-659.677978515625,-1318.6839599609375,-1508.8873291015625
316015.7029144833,-652.85791015625,-1226.8873291015625,-1093.69140625,-1162.873046875,-1068.8721923828125,-660.5577392578125,-1322.09228515625,-1511.9144287109375
316015.70691448334,-659.5145874023438,-1234.2864990234375,-1100.9180908203125,-1170.177734375,-1075.5413818359375,-666.5674438476562,-1329.6142578125,-1519.2850341796875
316015.71091448335,-661.08984375,-1235.1951904296875,-1101.9168701171875,-1171.220458984375,-1077.194580078125,-668.8046875,-1330.467529296875,-1520.408203125
316015.71491448337,-656.5155029296875,-1229.5677490234375,-1096.481201171875,-1165.7088623046875,-1072.623779296875,-665.1111450195312,-1324.681640625,-1514.966064453125
316015.7189144833,-650.7636108398438,-1223.6610107421875,-1090.6239013671875,-1159.736083984375,-1066.957763671875,-659.689453125,-1318.6319580078125,-1508.986328125
316015.72291448334,-652.8988647460938,-1226.955810546875,-1093.7708740234375,-1162.9429931640625,-1068.9981689453125,-660.703125,-1322.0792236328125,-1511.906982421875
316015.72691448336,-659.3782348632812,-1233.959716796875,-1100.6568603515625,-1169.9698486328125,-1075.3665771484375,-666.5729370117188,-1329.1116943359375,-1518.708984375
316015.73091448337,-660.9324951171875,-1234.7725830078125,-1101.569580078125,-1170.944091796875,-1076.9617919921875,-668.815185546875,-1329.8150634765625,-1519.697265625
316015.7349144833,-656.2446899414062,-1229.2554931640625,-1096.21142578125,-1165.4739990234375,-1072.4249267578125,-664.990234375,-1324.258056640625,-1514.535400390625
316015.73891448334,-650.886474609375,-1223.9197998046875,-1090.8436279296875,-1160.0244140625,-1067.2550048828125,-659.9227905273438,-1318.88330078125,-1509.2750244140625
316015.74291448336,-653.2371215820312,-1227.516357421875,-1094.263916015625,-1163.4271240234375,-1069.4658203125,-660.9609375,-1322.7672119140625,-1512.6483154296875
316015.7469144834,-659.9517211914062,-1234.9254150390625,-1101.5086669921875,-1170.7177734375,-1076.158447265625,-667.026123046875,-1330.2421875,-1519.9620361328125
316015.75091448333,-661.3546142578125,-1235.63134765625,-1102.302490234375,-1171.547119140625,-1077.6376953125,-669.14892578125,-1330.75830078125,-1520.8212890625
316015.75491448335,-657.0455932617188,-1230.3416748046875,-1097.1981201171875,-1166.3797607421875,-1073.36767578125,-665.7146606445312,-1325.3236083984375,-1515.765869140625
316015.75891448336,-651.13232421875,-1224.1416015625,-1091.0670166015625,-1160.166748046875,-1067.389892578125,-660.0151977539062,-1319.1005859375,-1509.5343017578125
316015.7629144834,-653.0247802734375,-1227.1456298828125,-1093.9107666015625,-1163.068359375,-1069.0855712890625,-660.669189453125,-1322.3375244140625,-1512.2421875
316015.76691448333,-659.6919555664062,-1234.3199462890625,-1100.9940185546875,-1170.272216796875,-1075.580322265625,-666.60595703125,-1329.6541748046875,-1519.3031005859375
316015.77091448335,-660.9789428710938,-1234.7745361328125,-1101.57861328125,-1170.794189453125,-1076.8553466796875,-668.5663452148438,-1330.0308837890625,-1519.8975830078125
316015.77491448337,-656.1797485351562,-1228.852783203125,-1095.86962890625,-1165.0218505859375,-1072.0062255859375,-664.6549682617188,-1323.96728515625,-1514.1317138671875
316015.7789144834,-649.765869140625,-1222.20166015625,-1089.262939453125,-1158.314697265625,-1065.5628662109375,-658.5493774414062,-1317.15673828125,-1507.3701171875
316015.78291448334,-651.47705078125,-1224.886474609375,-1091.8013916015625,-1160.9261474609375,-1067.01171875,-659.0484619140625,-1320.0093994140625,-1509.65625
316015.78691448335,-658.4913940429688,-1232.6273193359375,-1099.325439453125,-1168.5625,-1074.03466796875,-665.432861328125,-1327.76416015625,-1517.2626953125
316015.79091448337,-660.2894897460938,-1233.798828125,-1100.5418701171875,-1169.8590087890625,-1075.97412109375,-667.9423828125,-1328.804443359375,-1518.6585693359375
316015.7949144834,-656.4415283203125,-1229.0726318359375,-1096.0155029296875,-1165.2572021484375,-1072.3399658203125,-665.1141357421875,-1324.0196533203125,-1514.24365234375
316015.79891448334,-651.035400390625,-1223.504638671875,-1090.5633544921875,-1159.7506103515625,-1067.0467529296875,-659.9937133789062,-1318.5340576171875,-1508.748046875
316015.80291448336,-652.2454223632812,-1225.9390869140625,-1092.7926025390625,-1162.018798828125,-1068.164794921875,-660.0726318359375,-1321.134521484375,-1510.8487548828125
316015.8069144834,-659.0794677734375,-1233.396728515625,-1100.0882568359375,-1169.40380859375,-1074.8939208984375,-666.2272338867188,-1328.6810302734375,-1518.157958984375
316015.8109144834,-660.7736206054688,-1234.2994384765625,-1101.10546875,-1170.4290771484375,-1076.58203125,-668.600830078125,-1329.4144287109375,-1519.2391357421875
316015.8149144834,-655.9879150390625,-1228.3721923828125,-1095.4085693359375,-1164.647216796875,-1071.7679443359375,-664.6714477539062,-1323.3297119140625,-1513.480224609375
316015.81891448336,-650.8280639648438,-1222.9759521484375,-1090.080322265625,-1159.262451171875,-1066.62451171875,-659.7354125976562,-1317.8746337890625,-1508.04150390625
316015.8229144834,-652.5177001953125,-1225.918212890625,-1092.85302734375,-1162.0517578125,-1068.24169921875,-660.2305297851562,-1321.0740966796875,-1510.75439453125
316015.8269144834,-659.2088623046875,-1233.379150390625,-1100.1297607421875,-1169.4722900390625,-1074.9268798828125,-666.2067260742188,-1328.6624755859375,-1518.179931640625
316015.8309144834,-660.78955078125,-1234.20458984375,-1101.0264892578125,-1170.340576171875,-1076.49560546875,-668.4629516601562,-1329.3839111328125,-1519.201171875
316015.83491448336,-655.7036743164062,-1228.0509033203125,-1095.122802734375,-1164.3343505859375,-1071.4052734375,-664.2667846679688,-1323.2078857421875,-1513.306884765625
316015.8389144834,-650.541748046875,-1222.7911376953125,-1089.9173583984375,-1159.0791015625,-1066.3492431640625,-659.3377685546875,-1317.944091796875,-1508.1190185546875
316015.8429144834,-652.5062255859375,-1226.0665283203125,-1092.96044921875,-1162.13671875,-1068.2227783203125,-660.1395874023438,-1321.371826171875,-1511.10205078125
316015.8469144834,-659.1638793945312,-1233.390625,-1100.1102294921875,-1169.3519287109375,-1074.7725830078125,-666.1268310546875,-1328.784912109375,-1518.309326171875
316015.85091448337,-660.8185424804688,-1234.1690673828125,-1101.0340576171875,-1170.28466796875,-1076.3062744140625,-668.3365478515625,-1329.5572509765625,-1519.302001953125
316015.8549144834,-655.9339599609375,-1228.3466796875,-1095.4019775390625,-1164.583251953125,-1071.5421142578125,-664.36572265625,-1323.5736083984375,-1513.738525390625
316015.8589144834,-650.2529907226562,-1222.5673828125,-1089.629150390625,-1158.7593994140625,-1065.9366455078125,-658.8790893554688,-1317.7457275390625,-1508.049072265625
316015.8629144834,-652.0515747070312,-1225.706787109375,-1092.5133056640625,-1161.7034912109375,-1067.734619140625,-659.5475463867188,-1321.0015869140625,-1510.8837890625
316015.86691448337,-658.6742553710938,-1233.0,-1099.651611328125,-1168.927734375,-1074.2918701171875,-665.5537719726562,-1328.3262939453125,-1517.9891357421875
316015.8709144834,-660.325439453125,-1233.75439453125,-1100.5823974609375,-1169.910888671875,-1075.900146484375,-667.9088745117188,-1328.9981689453125,-1518.8944091796875
316015.8749144834,-655.7840576171875,-1228.1473388671875,-1095.1846923828125,-1164.48828125,-1071.40576171875,-664.30078125,-1323.2308349609375,-1513.45068359375
316015.8789144834,-650.0986328125,-1222.4454345703125,-1089.4417724609375,-1158.6708984375,-1065.8717041015625,-658.869140625,-1317.505859375,-1507.8037109375
316015.8829144834,-652.2938842773438,-1225.84521484375,-1092.6282958984375,-1161.7650146484375,-1067.882568359375,-659.7444458007812,-1321.18994140625,-1510.9267578125
316015.8869144834,-659.1943359375,-1233.2767333984375,-1099.94140625,-1169.1365966796875,-1074.5787353515625,-665.9754638671875,-1328.6954345703125,-1518.1405029296875
316015.8909144834,-660.9124755859375,-1233.9752197265625,-1100.8311767578125,-1170.09130859375,-1076.095458984375,-668.298095703125,-1329.3125,-1518.9522705078125
316015.8949144834,-656.2896728515625,-1228.3712158203125,-1095.439453125,-1164.52978515625,-1071.59912109375,-664.6654663085938,-1323.560546875,-1513.5296630859375
316015.8989144834,-650.96044921875,-1223.030029296875,-1090.091796875,-1158.99267578125,-1066.4791259765625,-659.7099609375,-1318.116943359375,-1508.2044677734375
316015.9029144834,-652.8154296875,-1226.0755615234375,-1092.9739990234375,-1161.986328125,-1068.2537841796875,-660.4448852539062,-1321.3572998046875,-1510.9447021484375
316015.9069144834,-659.6085205078125,-1233.75244140625,-1100.445556640625,-1169.61962890625,-1075.15966796875,-666.661865234375,-1329.0751953125,-1518.5286865234375
316015.9109144834,-661.4595336914062,-1235.059326171875,-1101.7889404296875,-1170.9495849609375,-1077.1051025390625,-669.1444091796875,-1330.3836669921875,-1520.17236328125
316015.91491448344,-656.9826049804688,-1229.5013427734375,-1096.47119140625,-1165.52099609375,-1072.5863037109375,-665.4713134765625,-1324.7496337890625,-1514.881591796875
316015.9189144834,-651.0398559570312,-1223.1583251953125,-1090.2510986328125,-1159.1900634765625,-1066.5740966796875,-659.8333740234375,-1318.3642578125,-1508.4287109375
316015.9229144834,-652.0355834960938,-1225.13330078125,-1092.12109375,-1161.06103515625,-1067.282470703125,-659.635009765625,-1320.5859375,-1510.02197265625
316015.9269144834,-659.0949096679688,-1232.8980712890625,-1099.6905517578125,-1168.7498779296875,-1074.2493896484375,-665.9549560546875,-1328.43115234375,-1517.662353515625
316015.93091448344,-660.91845703125,-1233.9632568359375,-1100.8726806640625,-1169.92041015625,-1076.074951171875,-668.4209594726562,-1329.4154052734375,-1518.935791015625
316015.9349144834,-656.2322387695312,-1228.1883544921875,-1095.3450927734375,-1164.3194580078125,-1071.4027099609375,-664.6395263671875,-1323.611083984375,-1513.40625
316015.9389144834,-650.4313354492188,-1222.22705078125,-1089.4527587890625,-1158.3531494140625,-1065.6707763671875,-659.0764770507812,-1317.7667236328125,-1507.577880859375
316015.9429144834,-652.7335205078125,-1225.8297119140625,-1092.85302734375,-1161.8653564453125,-1067.9150390625,-660.1680908203125,-1321.6451416015625,-1510.9501953125
316015.94691448344,-659.3826904296875,-1233.47412109375,-1100.255615234375,-1169.4097900390625,-1074.713623046875,-666.2332153320312,-1329.2490234375,-1518.5487060546875
316015.9509144834,-660.8295288085938,-1234.369384765625,-1101.1878662109375,-1170.382080078125,-1076.2847900390625,-668.3465576171875,-1329.948974609375,-1519.67529296875
316015.9549144834,-656.6268920898438,-1228.9857177734375,-1096.0675048828125,-1165.2496337890625,-1072.01318359375,-665.0181884765625,-1324.518798828125,-1514.50244140625
316015.95891448343,-650.8120727539062,-1222.84765625,-1090.0103759765625,-1159.0821533203125,-1066.1119384765625,-659.4221801757812,-1318.4027099609375,-1508.3372802734375
316015.96291448345,-651.8622436523438,-1225.13134765625,-1092.09716796875,-1161.10498046875,-1067.07373046875,-659.40869140625,-1320.82177734375,-1510.2652587890625
316015.9669144834,-658.2755737304688,-1232.4039306640625,-1099.1519775390625,-1168.268798828125,-1073.541015625,-665.2060546875,-1328.0909423828125,-1517.41650390625
316015.9709144834,-660.5912475585938,-1234.065673828125,-1100.88916015625,-1170.0513916015625,-1075.95703125,-668.1961669921875,-1329.602783203125,-1519.236083984375
316015.97491448343,-655.885986328125,-1228.3182373046875,-1095.362060546875,-1164.4228515625,-1071.34423828125,-664.4985961914062,-1323.6025390625,-1513.60009765625
316015.97891448345,-650.4888305664062,-1222.8101806640625,-1089.900390625,-1158.9117431640625,-1066.0869140625,-659.4246826171875,-1318.0439453125,-1508.156982421875
316015.9829144834,-652.0186157226562,-1225.8831787109375,-1092.6842041015625,-1161.77490234375,-1067.7606201171875,-659.8453369140625,-1321.264404296875,-1511.0277099609375
316015.9869144834,-658.5018920898438,-1233.1258544921875,-1099.7440185546875,-1168.97216796875,-1074.2454833984375,-665.6786499023438,-1328.58203125,-1518.14697265625
316015.99091448344,-660.076171875,-1233.978759765625,-1100.7158203125,-1169.8614501953125,-1075.857177734375,-667.931396484375,-1329.300537109375,-1519.1885986328125
316015.99491448345,-655.778564453125,-1228.7833251953125,-1095.7017822265625,-1164.70361328125,-1071.7119140625,-664.5191040039062,-1323.9532470703125,-1514.278076171875
316015.9989144834,-650.0756225585938,-1222.796630859375,-1089.800537109375,-1158.7484130859375,-1066.031982421875,-659.0839233398438,-1317.91357421875,-1508.264892578125
316016.0029144834,-651.317626953125,-1225.1533203125,-1091.978271484375,-1160.9385986328125,-1067.0911865234375,-659.1788940429688,-1320.443603515625,-1510.2528076171875
316016.00691448344,-657.6375732421875,-1231.98583984375,-1098.681884765625,-1167.7066650390625,-1073.1468505859375,-664.6150512695312,-1327.3759765625,-1516.8929443359375
316016.0109144834,-659.6094970703125,-1233.0634765625,-1099.9058837890625,-1168.897705078125,-1075.0133056640625,-667.1320190429688,-1328.3143310546875,-1518.051513671875
316016.0149144834,-654.9517211914062,-1227.2430419921875,-1094.3388671875,-1163.23583984375,-1070.3660888671875,-663.385498046875,-1322.2496337890625,-1512.330078125
316016.01891448343,-648.6293334960938,-1220.574462890625,-1087.767578125,-1156.5831298828125,-1063.9886474609375,-657.3163452148438,-1315.488525390625,-1505.6195068359375
316016.02291448344,-650.1436157226562,-1223.1898193359375,-1090.213623046875,-1159.109130859375,-1065.298583984375,-657.6820678710938,-1318.311279296875,-1507.9351806640625
316016.0269144834,-656.9281616210938,-1230.67041015625,-1097.539306640625,-1166.6151123046875,-1072.0107421875,-663.8111572265625,-1325.8363037109375,-1515.2943115234375
316016.0309144834,-658.6177978515625,-1231.7894287109375,-1098.7158203125,-1167.7491455078125,-1073.8447265625,-666.142822265625,-1326.83447265625,-1516.6741943359375
316016.03491448343,-654.0664672851562,-1226.2364501953125,-1093.392578125,-1162.322021484375,-1069.4197998046875,-662.4832153320312,-1321.1964111328125,-1511.40234375
316016.03891448345,-648.1196899414062,-1219.948486328125,-1087.1900634765625,-1156.1510009765625,-1063.4600830078125,-656.8047485351562,-1314.8819580078125,-1505.10888671875
316016.0429144834,-650.1760864257812,-1223.378662109375,-1090.39599609375,-1159.3973388671875,-1065.535888671875,-657.7909545898438,-1318.5955810546875,-1508.3013916015625
316016.0469144834,-657.2628784179688,-1231.395751953125,-1098.225830078125,-1167.3504638671875,-1072.7037353515625,-664.2298583984375,-1326.780029296875,-1516.2529296875
316016.05091448344,-658.8286743164062,-1232.1741943359375,-1099.1256103515625,-1168.1993408203125,-1074.2445068359375,-666.4085693359375,-1327.43701171875,-1517.165283203125
316016.05491448345,-653.8231811523438,-1225.9581298828125,-1093.1767578125,-1162.1141357421875,-1069.18701171875,-662.2984008789062,-1321.03759765625,-1511.0816650390625
316016.0589144834,-648.3875122070312,-1220.2861328125,-1087.5712890625,-1156.4761962890625,-1063.8172607421875,-657.1864624023438,-1315.229248046875,-1505.4031982421875
316016.0629144834,-650.369384765625,-1223.55859375,-1090.61083984375,-1159.565673828125,-1065.76171875,-658.019287109375,-1318.66748046875,-1508.375732421875
316016.0669144834,-657.1814575195312,-1231.29931640625,-1098.119873046875,-1167.1527099609375,-1072.665771484375,-664.2073364257812,-1326.435791015625,-1515.9776611328125
316016.0709144834,-659.4446411132812,-1233.031005859375,-1099.92236328125,-1168.958251953125,-1075.0963134765625,-667.114501953125,-1328.1024169921875,-1517.965576171875
316016.0749144834,-654.8208618164062,-1227.43798828125,-1094.5682373046875,-1163.487548828125,-1070.6378173828125,-663.3895263671875,-1322.4129638671875,-1512.67333984375
316016.0789144834,-649.0394897460938,-1221.2479248046875,-1088.4775390625,-1157.3690185546875,-1064.7879638671875,-657.8324584960938,-1316.1944580078125,-1506.434814453125
316016.0829144834,-650.4563598632812,-1223.77685546875,-1090.8326416015625,-1159.8050537109375,-1066.029541015625,-658.1741943359375,-1318.9112548828125,-1508.62158203125
316016.0869144834,-657.0455932617188,-1231.2913818359375,-1098.1129150390625,-1167.214599609375,-1072.70166015625,-664.2457885742188,-1326.4892578125,-1516.045654296875
316016.0909144834,-658.6937866210938,-1232.248046875,-1099.1905517578125,-1168.3251953125,-1074.4013671875,-666.5574951171875,-1327.404052734375,-1517.26220703125
316016.09491448343,-654.0079956054688,-1226.5626220703125,-1093.71142578125,-1162.63232421875,-1069.7735595703125,-662.7420043945312,-1321.66162109375,-1511.8819580078125
316016.0989144834,-648.6587524414062,-1220.7843017578125,-1088.0299072265625,-1156.92333984375,-1064.2818603515625,-657.5606689453125,-1315.78173828125,-1506.089111328125
316016.1029144834,-649.7039184570312,-1222.9434814453125,-1090.0103759765625,-1159.0172119140625,-1065.1842041015625,-657.5521850585938,-1318.0479736328125,-1507.8421630859375
316016.1069144834,-656.2057495117188,-1230.2027587890625,-1097.0396728515625,-1166.223876953125,-1071.634521484375,-663.4239501953125,-1325.335693359375,-1514.8541259765625
316016.11091448343,-658.6177978515625,-1231.94287109375,-1098.8568115234375,-1168.0389404296875,-1074.0855712890625,-666.3845825195312,-1326.9918212890625,-1516.7830810546875
316016.11491448345,-654.2847900390625,-1226.547607421875,-1093.7288818359375,-1162.7357177734375,-1069.7890625,-662.8869018554688,-1321.5592041015625,-1511.6776123046875
316016.1189144834,-647.9283447265625,-1219.8544921875,-1087.131103515625,-1156.1185302734375,-1063.381591796875,-656.8157348632812,-1314.817626953125,-1505.0399169921875
316016.1229144834,-649.2218017578125,-1222.2100830078125,-1089.329345703125,-1158.38916015625,-1064.4837646484375,-657.0740356445312,-1317.2685546875,-1506.9998779296875
316016.12691448344,-656.2332153320312,-1229.91748046875,-1096.8634033203125,-1166.0211181640625,-1071.3826904296875,-663.4049682617188,-1325.0069580078125,-1514.45947265625
316016.13091448345,-658.1731567382812,-1231.3238525390625,-1098.302734375,-1167.409912109375,-1073.4615478515625,-665.9534301757812,-1326.3114013671875,-1516.0750732421875
316016.1349144834,-653.9520263671875,-1226.114013671875,-1093.3106689453125,-1162.3685302734375,-1069.35888671875,-662.652099609375,-1321.0130615234375,-1511.140625
316016.1389144834,-648.6607666015625,-1220.6893310546875,-1087.947021484375,-1157.020263671875,-1064.2099609375,-657.6386108398438,-1315.6019287109375,-1505.8568115234375
316016.14291448344,-650.53076171875,-1224.0126953125,-1091.017578125,-1160.1507568359375,-1066.19189453125,-658.4099731445312,-1319.20751953125,-1508.975830078125
316016.14691448346,-657.6870727539062,-1232.1016845703125,-1098.8612060546875,-1168.141845703125,-1073.4271240234375,-664.8328247070312,-1327.39404296875,-1516.929931640625
316016.1509144834,-659.5440673828125,-1233.3712158203125,-1100.1787109375,-1169.46533203125,-1075.385498046875,-667.3448486328125,-1328.400146484375,-1518.3702392578125
316016.1549144834,-654.7064208984375,-1227.4339599609375,-1094.4892578125,-1163.659423828125,-1070.5819091796875,-663.48291015625,-1322.28564453125,-1512.640869140625
316016.15891448344,-648.8865966796875,-1221.221435546875,-1088.401611328125,-1157.4554443359375,-1064.7325439453125,-657.953857421875,-1316.0841064453125,-1506.44482421875
316016.16291448346,-649.5650634765625,-1222.925048828125,-1089.9173583984375,-1158.97119140625,-1065.1842041015625,-657.4647216796875,-1317.9940185546875,-1507.7847900390625
316016.1669144834,-655.9044799804688,-1229.8055419921875,-1096.656982421875,-1165.814697265625,-1071.29931640625,-663.0857543945312,-1324.9189453125,-1514.4034423828125
316016.17091448343,-657.8768920898438,-1230.9326171875,-1097.91796875,-1167.087158203125,-1073.231201171875,-665.7186279296875,-1325.8717041015625,-1515.573486328125
316016.17491448345,-653.4349365234375,-1225.4100341796875,-1092.6107177734375,-1161.685546875,-1068.830322265625,-662.2044677734375,-1320.186279296875,-1510.226318359375
316016.17891448346,-647.490234375,-1219.1685791015625,-1086.4466552734375,-1155.45947265625,-1062.89599609375,-656.5125122070312,-1313.90283203125,-1504.0057373046875
316016.1829144834,-649.1578979492188,-1222.0037841796875,-1089.091064453125,-1158.1983642578125,-1064.4443359375,-657.0120849609375,-1316.96630859375,-1506.583740234375
316016.18691448343,-656.0983276367188,-1229.8515625,-1096.7099609375,-1166.009521484375,-1071.441162109375,-663.2825927734375,-1324.91552734375,-1514.3585205078125
316016.19091448345,-658.22412109375,-1231.5291748046875,-1098.4495849609375,-1167.708251953125,-1073.812744140625,-666.1293334960938,-1326.533203125,-1516.326904296875
316016.19491448347,-653.86962890625,-1226.047607421875,-1093.2457275390625,-1162.41748046875,-1069.4632568359375,-662.630615234375,-1321.024658203125,-1511.1241455078125
316016.1989144834,-648.1521606445312,-1220.016357421875,-1087.300048828125,-1156.328857421875,-1063.75537109375,-657.2299194335938,-1314.993896484375,-1505.1033935546875
316016.20291448344,-649.3837280273438,-1222.469970703125,-1089.562255859375,-1158.64892578125,-1064.9068603515625,-657.3373413085938,-1317.6767578125,-1507.293701171875
316016.20691448345,-656.143798828125,-1230.1693115234375,-1096.998779296875,-1166.286865234375,-1071.7574462890625,-663.4219970703125,-1325.3896484375,-1514.863037109375
316016.21091448347,-658.1646728515625,-1231.6285400390625,-1098.4805908203125,-1167.8460693359375,-1073.9267578125,-666.1717529296875,-1326.587158203125,-1516.4677734375
316016.2149144834,-653.9755249023438,-1226.44775390625,-1093.488037109375,-1162.7132568359375,-1069.8204345703125,-662.8489379882812,-1321.2689208984375,-1511.48681640625
316016.21891448344,-648.35205078125,-1220.4754638671875,-1087.61474609375,-1156.8109130859375,-1064.1849365234375,-657.5151977539062,-1315.3011474609375,-1505.49853515625
316016.22291448346,-649.3162841796875,-1222.5623779296875,-1089.520751953125,-1158.80029296875,-1065.0078125,-657.3463134765625,-1317.643798828125,-1507.263671875
316016.2269144835,-656.1298217773438,-1230.1947021484375,-1096.9632568359375,-1166.351318359375,-1071.7908935546875,-663.4344482421875,-1325.3846435546875,-1514.7806396484375
316016.2309144834,-658.1087036132812,-1231.53271484375,-1098.377197265625,-1167.7396240234375,-1073.8287353515625,-666.0713500976562,-1326.509765625,-1516.306884765625
316016.23491448344,-653.8331298828125,-1226.2288818359375,-1093.291748046875,-1162.4888916015625,-1069.565673828125,-662.5966186523438,-1321.1629638671875,-1511.304931640625
316016.23891448346,-648.1301879882812,-1220.2347412109375,-1087.367431640625,-1156.4912109375,-1063.8912353515625,-657.2054443359375,-1315.1177978515625,-1505.322265625
316016.2429144834,-649.9072875976562,-1223.1544189453125,-1090.1107177734375,-1159.29638671875,-1065.5718994140625,-657.9143676757812,-1318.204345703125,-1507.93212890625
316016.24691448343,-656.6254272460938,-1230.6029052734375,-1097.42041015625,-1166.698486328125,-1072.2430419921875,-663.9560546875,-1325.7742919921875,-1515.206298828125
316016.25091448345,-658.7167358398438,-1231.96337890625,-1098.873779296875,-1168.1688232421875,-1074.3453369140625,-666.6753540039062,-1327.037353515625,-1516.6956787109375
316016.25491448346,-654.2758178710938,-1226.384765625,-1093.552978515625,-1162.7681884765625,-1069.9249267578125,-663.1861572265625,-1321.3663330078125,-1511.306396484375
316016.2589144834,-648.20263671875,-1219.948974609375,-1087.1976318359375,-1156.34033203125,-1063.8138427734375,-657.3953247070312,-1314.926025390625,-1504.8851318359375
316016.26291448344,-649.4761352539062,-1222.46142578125,-1089.4732666015625,-1158.6954345703125,-1065.0323486328125,-657.565185546875,-1317.5643310546875,-1507.103271484375
316016.2669144834,-656.1887817382812,-1230.0244140625,-1096.8314208984375,-1166.1968994140625,-1071.7384033203125,-663.5868530273438,-1325.2357177734375,-1514.5723876953125
316016.2709144834,-658.4214477539062,-1231.6055908203125,-1098.49609375,-1167.87060546875,-1074.0211181640625,-666.4176025390625,-1326.75048828125,-1516.3868408203125
316016.2749144834,-654.4921264648438,-1226.586181640625,-1093.73486328125,-1163.0244140625,-1070.072265625,-663.298095703125,-1321.7200927734375,-1511.68212890625
316016.27891448344,-648.7446899414062,-1220.60986328125,-1087.8331298828125,-1157.0606689453125,-1064.3648681640625,-657.8589477539062,-1315.6708984375,-1505.79638671875
316016.2829144834,-649.7824096679688,-1222.8231201171875,-1089.8729248046875,-1159.156494140625,-1065.338623046875,-657.8309326171875,-1318.0155029296875,-1507.6893310546875
316016.2869144834,-656.6858520507812,-1230.4365234375,-1097.3084716796875,-1166.742431640625,-1072.1436767578125,-664.0255126953125,-1325.7183837890625,-1515.119384765625
316016.2909144834,-658.2076416015625,-1231.3807373046875,-1098.2886962890625,-1167.7486572265625,-1073.7752685546875,-666.1467895507812,-1326.552734375,-1516.2445068359375
316016.29491448344,-654.0409545898438,-1226.137939453125,-1093.2802734375,-1162.6292724609375,-1069.606689453125,-662.7919921875,-1321.2669677734375,-1511.242431640625
316016.2989144834,-647.9683227539062,-1219.822509765625,-1087.0272216796875,-1156.29736328125,-1063.6009521484375,-657.050048828125,-1314.9329833984375,-1504.9539794921875
316016.3029144834,-649.4816284179688,-1222.5509033203125,-1089.5517578125,-1158.8917236328125,-1065.1102294921875,-657.5496826171875,-1317.8621826171875,-1507.3526611328125
316016.30691448343,-656.1912841796875,-1230.197265625,-1096.9713134765625,-1166.3807373046875,-1071.9298095703125,-663.642822265625,-1325.614990234375,-1514.8541259765625
316016.31091448345,-658.5618896484375,-1232.062744140625,-1098.917236328125,-1168.272705078125,-1074.4293212890625,-666.5489501953125,-1327.559326171875,-1517.0194091796875
316016.3149144834,-654.2763061523438,-1226.9677734375,-1093.9876708984375,-1163.1702880859375,-1070.330078125,-663.1282348632812,-1322.2701416015625,-1512.2452392578125
316016.3189144834,-648.267578125,-1220.7353515625,-1087.8045654296875,-1156.934814453125,-1064.3768310546875,-657.4247436523438,-1315.853271484375,-1506.0816650390625
316016.32291448343,-649.5125732421875,-1223.23974609375,-1090.115234375,-1159.2789306640625,-1065.6258544921875,-657.6235961914062,-1318.5301513671875,-1508.3468017578125
316016.32691448345,-656.5659790039062,-1231.135009765625,-1097.8001708984375,-1167.1231689453125,-1072.670654296875,-663.9375610351562,-1326.502685546875,-1516.1170654296875
316016.3309144834,-658.37548828125,-1232.2645263671875,-1098.9857177734375,-1168.3187255859375,-1074.4962158203125,-666.3676147460938,-1327.5169677734375,-1517.3760986328125
316016.3349144834,-654.2498168945312,-1226.935302734375,-1093.9212646484375,-1163.142822265625,-1070.276123046875,-663.1027221679688,-1322.1097412109375,-1512.2152099609375
316016.33891448344,-648.13818359375,-1220.338134765625,-1087.4559326171875,-1156.5635986328125,-1064.0196533203125,-657.2144165039062,-1315.51953125,-1505.569580078125
316016.34291448345,-649.3922119140625,-1222.706787109375,-1089.630615234375,-1158.755859375,-1065.1512451171875,-657.4322509765625,-1318.0574951171875,-1507.577392578125
316016.3469144834,-656.1812744140625,-1230.210693359375,-1096.9512939453125,-1166.2479248046875,-1071.8314208984375,-663.4859008789062,-1325.6668701171875,-1514.9345703125
316016.3509144834,-658.319580078125,-1231.685546875,-1098.528564453125,-1167.859619140625,-1074.003662109375,-666.2177124023438,-1327.072265625,-1516.6202392578125
316016.35491448344,-654.3417358398438,-1226.631103515625,-1093.73486328125,-1163.0184326171875,-1070.018310546875,-663.0532836914062,-1322.02734375,-1511.8594970703125
316016.35891448346,-648.6303100585938,-1220.595947265625,-1087.7811279296875,-1157.0797119140625,-1064.2813720703125,-657.57763671875,-1316.0230712890625,-1505.914306640625
316016.36291448347,-650.1875610351562,-1223.4600830078125,-1090.4114990234375,-1159.78955078125,-1065.8671875,-658.084716796875,-1318.9932861328125,-1508.537109375
316016.3669144834,-656.6918334960938,-1230.7947998046875,-1097.5517578125,-1167.0567626953125,-1072.3909912109375,-663.9330444335938,-1326.416259765625,-1515.744873046875
316016.37091448344,-658.5763549804688,-1232.064208984375,-1098.896728515625,-1168.418701171875,-1074.3328857421875,-666.3870849609375,-1327.643310546875,-1517.2171630859375
316016.37491448346,-654.8793334960938,-1227.33251953125,-1094.4073486328125,-1163.8687744140625,-1070.6602783203125,-663.5313720703125,-1322.82568359375,-1512.7662353515625
316016.3789144835,-649.1519165039062,-1221.3128662109375,-1088.4700927734375,-1157.7901611328125,-1064.976318359375,-658.125732421875,-1316.7449951171875,-1506.756591796875
316016.38291448343,-650.1830444335938,-1223.669921875,-1090.575927734375,-1159.864990234375,-1066.0665283203125,-658.1397094726562,-1319.2650146484375,-1508.7989501953125
316016.38691448345,-656.8826904296875,-1231.2174072265625,-1097.8740234375,-1167.3035888671875,-1072.7626953125,-664.1453857421875,-1326.81591796875,-1516.153076171875
316016.39091448346,-658.9835205078125,-1232.74267578125,-1099.4228515625,-1168.8487548828125,-1074.952392578125,-666.8922119140625,-1328.0999755859375,-1517.8201904296875
316016.3949144835,-654.9492797851562,-1227.599853515625,-1094.51318359375,-1163.81787109375,-1070.8956298828125,-663.7247314453125,-1322.860595703125,-1512.9111328125
316016.39891448343,-648.838623046875,-1221.134033203125,-1088.1129150390625,-1157.3544921875,-1064.7559814453125,-657.8629150390625,-1316.3782958984375,-1506.474853515625
316016.40291448345,-650.0001831054688,-1223.4920654296875,-1090.2591552734375,-1159.5391845703125,-1065.849609375,-657.8873901367188,-1319.021240234375,-1508.608642578125
316016.40691448346,-656.8382568359375,-1231.0450439453125,-1097.6827392578125,-1167.0711669921875,-1072.5712890625,-663.9615478515625,-1326.782470703125,-1516.026611328125
316016.4109144835,-659.226318359375,-1232.634765625,-1099.456787109375,-1168.9237060546875,-1074.8909912109375,-666.8887329101562,-1328.398681640625,-1517.7728271484375
316016.41491448344,-655.0546875,-1227.365966796875,-1094.4852294921875,-1163.7603759765625,-1070.727294921875,-663.6387939453125,-1323.0389404296875,-1512.7637939453125
316016.41891448345,-648.9440307617188,-1220.99755859375,-1088.185302734375,-1157.3284912109375,-1064.717041015625,-657.9508666992188,-1316.4766845703125,-1506.391357421875
316016.42291448347,-649.7189331054688,-1222.9649658203125,-1089.9903564453125,-1159.2039794921875,-1065.470458984375,-657.7020263671875,-1318.6619873046875,-1508.0999755859375
316016.4269144835,-656.359130859375,-1230.339111328125,-1097.214599609375,-1166.609130859375,-1072.0302734375,-663.5983276367188,-1326.1290283203125,-1515.34375
316016.43091448344,-658.8541259765625,-1232.158203125,-1099.109619140625,-1168.572509765625,-1074.50927734375,-666.6698608398438,-1327.817626953125,-1517.349609375
316016.43491448346,-655.1141357421875,-1227.3065185546875,-1094.49072265625,-1163.8553466796875,-1070.7467041015625,-663.8486328125,-1322.8421630859375,-1512.681396484375
316016.4389144835,-648.7976684570312,-1220.6263427734375,-1087.905517578125,-1157.1661376953125,-1064.44482421875,-657.932373046875,-1316.0595703125,-1505.927734375
316016.4429144834,-649.7928466796875,-1222.751220703125,-1089.8330078125,-1159.135009765625,-1065.3450927734375,-657.8663940429688,-1318.38427734375,-1507.7088623046875
316016.44691448344,-656.64990234375,-1230.392578125,-1097.27001953125,-1166.696533203125,-1072.1571044921875,-663.967529296875,-1326.1390380859375,-1515.150390625
316016.45091448346,-658.9545288085938,-1232.1181640625,-1099.0731201171875,-1168.5360107421875,-1074.5587158203125,-666.8587036132812,-1327.8216552734375,-1517.102783203125
316016.4549144835,-654.9946899414062,-1227.2496337890625,-1094.372802734375,-1163.7293701171875,-1070.7337646484375,-663.82666015625,-1322.7667236328125,-1512.510498046875
316016.45891448343,-649.0244750976562,-1220.9072265625,-1088.1143798828125,-1157.406005859375,-1064.76806640625,-658.2051391601562,-1316.348388671875,-1506.1580810546875
316016.46291448345,-649.9097900390625,-1223.0145263671875,-1090.02685546875,-1159.347412109375,-1065.6148681640625,-658.0247802734375,-1318.6044921875,-1508.049072265625
316016.4669144834,-656.6783447265625,-1230.69677734375,-1097.493896484375,-1166.978759765625,-1072.400390625,-664.0584716796875,-1326.3992919921875,-1515.6639404296875
316016.4709144834,-659.04150390625,-1232.46240234375,-1099.326904296875,-1168.8778076171875,-1074.81201171875,-666.9871215820312,-1328.06103515625,-1517.6678466796875
316016.47491448343,-655.2890014648438,-1227.6552734375,-1094.756591796875,-1164.2374267578125,-1071.0689697265625,-664.0789794921875,-1323.1763916015625,-1513.10205078125
316016.47891448345,-649.4766235351562,-1221.6265869140625,-1088.8023681640625,-1158.2017822265625,-1065.3460693359375,-658.5653686523438,-1317.192138671875,-1507.1512451171875
316016.4829144834,-650.2415161132812,-1223.5426025390625,-1090.533935546875,-1159.885498046875,-1065.985595703125,-658.1621704101562,-1319.365478515625,-1508.8319091796875
316016.4869144834,-657.0205688476562,-1231.0960693359375,-1097.8740234375,-1167.33349609375,-1072.6866455078125,-664.2003784179688,-1326.984375,-1516.241943359375
316016.49091448344,-659.1473999023438,-1232.6552734375,-1099.4642333984375,-1168.9757080078125,-1074.91796875,-666.9676513671875,-1328.331298828125,-1517.8717041015625
316016.49491448345,-655.239990234375,-1227.818115234375,-1094.7960205078125,-1164.1690673828125,-1071.06201171875,-663.8571166992188,-1323.49365234375,-1513.327880859375
316016.4989144834,-649.7484130859375,-1222.0587158203125,-1089.0960693359375,-1158.3831787109375,-1065.6243896484375,-658.6588134765625,-1317.750244140625,-1507.6903076171875
316016.5029144834,-650.733642578125,-1224.302001953125,-1091.1654052734375,-1160.468994140625,-1066.625,-658.6103515625,-1320.1678466796875,-1509.72119140625
316016.5069144834,-656.8746948242188,-1231.2138671875,-1097.8980712890625,-1167.256591796875,-1072.6552734375,-663.9545288085938,-1327.2047119140625,-1516.52880859375
316016.5109144834,-659.0339965820312,-1232.623779296875,-1099.443359375,-1168.767333984375,-1074.7525634765625,-666.7138671875,-1328.398681640625,-1518.050537109375
316016.5149144834,-655.0311889648438,-1227.5513916015625,-1094.5906982421875,-1163.8353271484375,-1070.7657470703125,-663.6392822265625,-1323.097412109375,-1513.1400146484375
316016.5189144834,-649.66650390625,-1221.9044189453125,-1089.0096435546875,-1158.2457275390625,-1065.4669189453125,-658.5608520507812,-1317.46142578125,-1507.56787109375
316016.5229144834,-650.5817260742188,-1223.9327392578125,-1090.8846435546875,-1160.124755859375,-1066.27880859375,-658.3919677734375,-1319.744140625,-1509.267578125
316016.5269144834,-656.7118530273438,-1230.7987060546875,-1097.5767822265625,-1166.9178466796875,-1072.33642578125,-663.7777099609375,-1326.7239990234375,-1515.915283203125
316016.5309144834,-659.0979614257812,-1232.472412109375,-1099.3563232421875,-1168.7813720703125,-1074.759033203125,-666.8087768554688,-1328.2757568359375,-1517.7177734375
316016.5349144834,-655.0391845703125,-1227.4034423828125,-1094.4962158203125,-1163.8687744140625,-1070.7471923828125,-663.59033203125,-1323.1553955078125,-1512.9371337890625
316016.5389144834,-648.99853515625,-1221.14794921875,-1088.2677001953125,-1157.556884765625,-1064.8265380859375,-657.976806640625,-1316.7559814453125,-1506.70458984375
316016.5429144834,-649.9777221679688,-1223.2652587890625,-1090.1751708984375,-1159.499755859375,-1065.7237548828125,-657.9183959960938,-1319.0367431640625,-1508.49169921875
316016.5469144834,-656.8252563476562,-1231.0675048828125,-1097.7176513671875,-1167.1845703125,-1072.63671875,-664.04150390625,-1326.9383544921875,-1516.1685791015625
316016.5509144834,-658.9176025390625,-1232.4864501953125,-1099.1824951171875,-1168.7054443359375,-1074.7100830078125,-666.703857421875,-1328.1439208984375,-1517.7117919921875
316016.5549144834,-654.3812255859375,-1226.6895751953125,-1093.6673583984375,-1163.1143798828125,-1070.0533447265625,-663.0368041992188,-1322.1796875,-1512.0538330078125
316016.5589144834,-648.2301025390625,-1219.8045654296875,-1086.9697265625,-1156.2529296875,-1063.6124267578125,-657.200439453125,-1315.2012939453125,-1505.0419921875
316016.5629144834,-648.72021484375,-1221.1954345703125,-1088.2576904296875,-1157.5089111328125,-1063.832275390625,-656.5834350585938,-1316.8189697265625,-1506.07666015625
316016.5669144834,-655.1031494140625,-1228.1434326171875,-1095.0892333984375,-1164.4283447265625,-1069.9683837890625,-662.1909790039062,-1323.8238525390625,-1512.7662353515625
316016.5709144834,-657.3807983398438,-1229.7850341796875,-1096.8214111328125,-1166.189453125,-1072.2860107421875,-665.0361938476562,-1325.3536376953125,-1514.5667724609375
316016.5749144834,-653.7906494140625,-1225.5458984375,-1092.7257080078125,-1162.064208984375,-1069.0311279296875,-662.3533325195312,-1321.0860595703125,-1510.743896484375
316016.5789144834,-648.8576049804688,-1220.619873046875,-1087.80810546875,-1157.14111328125,-1064.33837890625,-657.694580078125,-1316.2489013671875,-1506.0506591796875
316016.5829144834,-649.5970458984375,-1222.560302734375,-1089.57470703125,-1158.959228515625,-1065.062744140625,-657.3873291015625,-1318.4017333984375,-1507.7298583984375
316016.5869144834,-656.4205932617188,-1230.154296875,-1096.9967041015625,-1166.55517578125,-1071.8199462890625,-663.4774169921875,-1326.0526123046875,-1515.15380859375
316016.5909144834,-658.6278076171875,-1231.6934814453125,-1098.66943359375,-1168.2208251953125,-1074.0535888671875,-666.2886962890625,-1327.5718994140625,-1516.905517578125
316016.5949144834,-654.936279296875,-1227.1351318359375,-1094.305908203125,-1163.7303466796875,-1070.56640625,-663.6133422851562,-1322.91455078125,-1512.6873779296875
316016.5989144834,-649.0664672851562,-1221.026611328125,-1088.2686767578125,-1157.6527099609375,-1064.8094482421875,-658.1242065429688,-1316.7845458984375,-1506.7281494140625
316016.6029144834,-649.9822387695312,-1223.1544189453125,-1090.201171875,-1159.6666259765625,-1065.7587890625,-658.0787353515625,-1319.0721435546875,-1508.4976806640625
316016.6069144834,-656.5054931640625,-1230.544921875,-1097.35302734375,-1166.96875,-1072.321533203125,-663.9285888671875,-1326.393310546875,-1515.64697265625
316016.61091448343,-658.91259765625,-1232.3675537109375,-1099.2135009765625,-1168.8212890625,-1074.79248046875,-666.93017578125,-1328.031494140625,-1517.5465087890625
316016.6149144834,-654.7084350585938,-1227.13671875,-1094.218994140625,-1163.75390625,-1070.6273193359375,-663.5648803710938,-1322.75927734375,-1512.56689453125
316016.6189144834,-648.9110717773438,-1221.0684814453125,-1088.173828125,-1157.6612548828125,-1064.875,-658.0707397460938,-1316.6231689453125,-1506.5498046875
316016.6229144834,-649.7993774414062,-1222.970458984375,-1089.910400390625,-1159.410888671875,-1065.5528564453125,-657.7984619140625,-1318.744873046875,-1508.1724853515625
