lsl_time,CZ,C3,CPZ3,FC4,FC3,CPZ4,C4,CPZ
304964.0561936414,0.39101192355155945,0.6592075824737549,0.1820189654827118,-0.190592959523201,0.7500138282775879,1.8727643489837646,2.136166572570801,0.9055404663085938
304964.0601936414,0.4775712490081787,0.6970296502113342,-0.020204834640026093,-0.12471641600131989,1.480948567390442,2.6089696884155273,1.747255563735962,0.1025046557188034
304964.0641936414,0.5437633991241455,0.7880749702453613,-0.03619254007935524,-0.1583734154701233,1.7014658451080322,2.985696315765381,1.9861594438552856,0.03512955456972122
304964.06819364143,0.32042860984802246,0.21647611260414124,-0.11046669632196426,0.7441955804824829,1.398003101348877,0.37626922130584717,0.060708027333021164,1.8258644342422485
304964.0721936414,0.4817081093788147,0.2573562264442444,-0.1493629813194275,1.3900668621063232,1.9468778371810913,0.12889130413532257,0.6299445033073425,3.5189461708068848
304964.0761936414,0.5531591176986694,0.30044689774513245,-0.17392022907733917,1.581135630607605,2.2785253524780273,0.1594085395336151,0.687943696975708,4.0399956703186035
304964.0801936414,0.2850210964679718,0.023026378825306892,0.18367937207221985,1.1200745105743408,0.2793597877025604,-0.002442078199237585,1.8317203521728516,0.9697851538658142
304964.0841936414,0.38817623257637024,-0.04147721827030182,0.5218015313148499,1.403402328491211,0.021443959325551987,1.0052014589309692,2.0193145275115967,0.8428435921669006
304964.0881936414,0.4515759348869324,-0.1205340027809143,0.8758852481842041,1.4593987464904785,-0.2625572681427002,2.1399147510528564,1.7162985801696777,0.7133576273918152
304964.0921936414,0.5120747089385986,-0.13623924553394318,1.0004074573516846,1.6667762994766235,-0.35640132427215576,2.4636316299438477,2.009774684906006,0.706027090549469
304964.0961936414,0.1839125007390976,-0.07644695788621902,0.5801623463630676,0.20466306805610657,0.1772967427968979,1.156556487083435,-0.28662922978401184,2.678891181945801
304964.10019364144,0.22588296234607697,-0.041884101927280426,0.9112144708633423,-0.0479980930685997,1.1640684604644775,0.5538626909255981,0.7275117635726929,3.6356592178344727
304964.1041936414,0.3268103301525116,-0.03190648928284645,1.365524172782898,-0.11485113203525543,1.9979972839355469,0.3884069323539734,1.5961153507232666,3.736084461212158
304964.1081936414,0.37745028734207153,-0.043583597987890244,1.5929404497146606,-0.14431031048297882,2.299628496170044,0.4510498046875,1.8086764812469482,4.436087131500244
304964.1121936414,0.15655678510665894,0.1183963418006897,0.6314651966094971,0.03668207675218582,1.1653902530670166,-0.18403291702270508,1.8792003393173218,-0.1056930348277092
304964.1161936414,0.18915070593357086,0.2977552115917206,0.5932837724685669,0.5158801078796387,0.9685333371162415,0.7854791879653931,1.5011597871780396,1.1484137773513794
304964.1201936414,0.1969023048877716,0.4807735085487366,0.4306434690952301,1.0513105392456055,0.5135382413864136,1.9644484519958496,0.7466574907302856,2.6530957221984863
304964.1241936414,0.22274211049079895,0.5489431023597717,0.48341119289398193,1.215633511543274,0.5710363984107971,2.2579853534698486,0.7981909513473511,3.0340352058410645
304964.12819364143,0.07010576874017715,0.4426712095737457,-0.10085959732532501,1.2115129232406616,-0.07450659573078156,1.6361109018325806,0.06717173010110855,1.1980235576629639
304964.1321936414,0.07232894003391266,0.7203379273414612,-0.1829850971698761,1.538318395614624,0.300385057926178,1.3662079572677612,1.4088711738586426,0.5141861438751221
304964.1361936414,0.06169864535331726,0.9509560465812683,-0.2274267077445984,1.6393210887908936,0.7968144416809082,0.7623013257980347,2.9392504692077637,-0.33816662430763245
304964.1401936414,0.06936495751142502,1.0839283466339111,-0.27410393953323364,1.8817239999771118,0.8842418193817139,0.8388532996177673,3.370156764984131,-0.5554494261741638
304964.14419364143,0.00011229402298340574,0.5932430624961853,0.0570068359375,0.301616907119751,1.3323861360549927,-0.16710273921489716,2.711663007736206,1.7860428094863892
304964.1481936414,-0.016218284144997597,0.8000344038009644,0.34770667552948,0.08796271681785583,1.7875573635101318,0.6152393221855164,1.4335432052612305,2.6038010120391846
304964.1521936414,-0.035332195460796356,0.9131820201873779,0.6758307814598083,-0.1666203886270523,1.9521759748458862,1.6147081851959229,-0.26704269647598267,2.8701939582824707
304964.1561936414,-0.04053804278373718,1.0396194458007812,0.7734825015068054,-0.22787483036518097,2.2237701416015625,1.8336377143859863,-0.5620229244232178,3.3903448581695557
304964.16019364144,-0.0429852269589901,0.41155627369880676,0.7453423142433167,-0.14446796476840973,0.2078649252653122,1.8449491262435913,0.9660637378692627,-0.0722828283905983
304964.1641936414,-0.06862758100032806,0.4521147310733795,1.192267894744873,0.2835492789745331,0.024412252008914948,1.7155485153198242,2.0575666427612305,0.7925036549568176
304964.1681936414,-0.09053009748458862,0.4197196662425995,1.5388141870498657,0.8074880242347717,-0.15077272057533264,1.155340552330017,2.9383368492126465,1.993636131286621
304964.1721936414,-0.10347387939691544,0.4736825227737427,1.7645204067230225,0.9311649799346924,-0.18380902707576752,1.295137643814087,3.5247693061828613,2.234414577484131
304964.17619364144,-0.051499899476766586,0.08633194118738174,0.7542486190795898,1.0207083225250244,0.44423946738243103,-0.486530065536499,0.32535138726234436,1.9780213832855225
304964.1801936414,-0.05564612150192261,0.04008502513170242,0.7846579551696777,1.4733418226242065,1.2423577308654785,0.22428645193576813,0.15284442901611328,1.2973092794418335
304964.1841936414,-0.049457382410764694,-0.026037465780973434,0.6710165739059448,1.7685997486114502,2.0061898231506348,1.216268539428711,0.10377699881792068,0.24781003594398499
304964.1881936414,-0.05691147223114967,-0.03432745486497879,0.754703164100647,2.0428075790405273,2.3566324710845947,1.385894536972046,-0.0019787242636084557,0.13651105761528015
304964.19219364144,-0.008890142664313316,-0.11064562946557999,0.020302381366491318,0.515087366104126,1.1039481163024902,1.9478265047073364,1.580458164215088,0.9314585328102112
304964.1961936414,0.012538153678178787,-0.1328653246164322,-0.07044462859630585,0.2855590879917145,1.0220812559127808,1.971514105796814,2.2179627418518066,2.0699539184570312
304964.2001936414,0.038289111107587814,-0.12427812814712524,-0.16846227645874023,-0.05731084197759628,0.6931766271591187,1.5127902030944824,2.4803709983825684,2.9883220195770264
304964.20419364143,0.04410931468009949,-0.14649443328380585,-0.2041737586259842,-0.0975426733493805,0.7640125751495361,1.730198621749878,2.945988416671753,3.582784652709961
304964.20819364145,0.06476524472236633,0.04375047609210014,-0.03649861365556717,-0.20535023510456085,-0.19803190231323242,-0.2241145372390747,-0.17263099551200867,-0.17806893587112427
304964.2121936414,0.12291893362998962,0.17672084271907806,0.19508954882621765,0.11724697798490524,0.18243837356567383,0.2089708000421524,0.21192924678325653,0.7582173943519592
304964.2161936414,0.17733538150787354,0.32604533433914185,0.47179803252220154,0.5482470393180847,0.7045081853866577,0.8380906581878662,0.8920203447341919,2.244824171066284
304964.22019364143,0.2020726203918457,0.37214237451553345,0.5370559096336365,0.6260455846786499,0.7771317958831787,0.9470729827880859,0.9399930834770203,2.374635934829712
304964.22419364145,0.17470507323741913,0.44199317693710327,0.7675321698188782,1.1174170970916748,1.4579910039901733,1.7155152559280396,1.9569472074508667,3.658726453781128
304964.2281936414,0.2785872519016266,0.7274566292762756,1.269148349761963,1.8016626834869385,2.2113535404205322,2.416764736175537,2.528989315032959,4.0728607177734375
304964.2321936414,0.32007545232772827,0.833812952041626,1.4527089595794678,2.0794124603271484,2.531149387359619,2.8485965728759766,2.9368646144866943,4.931759357452393
304964.23619364144,0.20711331069469452,0.5485012531280518,0.827264130115509,0.9213773012161255,0.7841945886611938,0.19754819571971893,-0.2107427716255188,-0.3451736271381378
304964.2401936414,0.31816717982292175,0.7914960980415344,1.0624805688858032,0.8927434086799622,0.4097684323787689,0.020482297986745834,0.07546275854110718,0.8068828582763672
304964.2441936414,0.40573832392692566,0.9545242190361023,1.145522952079773,0.6578056216239929,-0.12590953707695007,-0.06605639308691025,0.6895028352737427,2.255298376083374
304964.2481936414,0.46115201711654663,1.0884288549423218,1.3116365671157837,0.7409175038337708,-0.2031559944152832,-0.14714644849300385,0.7346659898757935,2.5858333110809326
304964.25219364144,0.266462504863739,0.523827850818634,0.3056480288505554,-0.17657767236232758,-0.08374717086553574,1.0003560781478882,1.8370203971862793,1.6922639608383179
304964.2561936414,0.39126309752464294,0.6545027494430542,0.2206346094608307,-0.17062662541866302,0.6109868884086609,1.9315929412841797,1.885435700416565,0.9839197993278503
304964.2601936414,0.48211488127708435,0.6975312232971191,0.07328680902719498,-0.07590851187705994,1.4318568706512451,2.7107372283935547,1.4398248195648193,-0.1208854541182518
304964.26419364143,0.5473797917366028,0.7912801504135132,0.07426010072231293,-0.10245084017515182,1.6485012769699097,3.163907766342163,1.6746495962142944,-0.1847928762435913
304964.26819364144,0.2953392267227173,0.23534728586673737,-0.11577428877353668,0.533977746963501,1.484788179397583,0.5054366588592529,-0.4483715295791626,1.407981276512146
304964.2721936414,0.41591617465019226,0.2125254124403,-0.05790683254599571,1.1951274871826172,1.5876212120056152,0.23142214119434357,0.6931126713752747,2.482727289199829
304964.2761936414,0.4966443181037903,0.14159363508224487,0.04415828734636307,1.8420685529708862,1.3638187646865845,-0.05707879364490509,2.1488897800445557,3.1734092235565186
304964.28019364143,0.5646121501922607,0.15934602916240692,0.0367722325026989,2.1177940368652344,1.5569097995758057,-0.15918974578380585,2.4435465335845947,3.7538509368896484
304964.28419364145,0.27832910418510437,-0.053792744874954224,0.3636961877346039,1.023071050643921,-0.14380358159542084,0.8055993914604187,3.4813592433929443,-0.30580800771713257
304964.2881936414,0.3705601990222931,-0.11640233546495438,0.7750546336174011,1.0731502771377563,-0.13179491460323334,1.8021111488342285,2.8450472354888916,0.3513126075267792
304964.2921936414,0.4222416579723358,-0.1761225312948227,1.1685106754302979,0.909609317779541,-0.05186782777309418,2.697185754776001,1.4524993896484375,1.448280930519104
304964.29619364144,0.47952452301979065,-0.20111912488937378,1.3409289121627808,1.0391514301300049,-0.10855958610773087,3.1093032360076904,1.4976195096969604,1.545663595199585
304964.30019364145,0.21403047442436218,-0.08557628095149994,0.8522197008132935,-0.07247401028871536,1.0187231302261353,0.8307443261146545,0.16338594257831573,1.8297653198242188
304964.3041936414,0.27439725399017334,-0.019662102684378624,1.135696530342102,-0.226375013589859,1.7933841943740845,0.3741791546344757,1.398748755455017,1.233071208000183
304964.3081936414,0.30239808559417725,0.0768107920885086,1.289441466331482,-0.33077356219291687,2.4224932193756104,-0.18981872498989105,2.661975860595703,0.08974142372608185
304964.31219364144,0.34357497096061707,0.08915769308805466,1.4656717777252197,-0.4096132516860962,2.7941172122955322,-0.3263797461986542,3.1632473468780518,0.07988664507865906
304964.31619364145,0.13446281850337982,0.20203445851802826,0.4264417290687561,0.3694412410259247,0.7409879565238953,0.5403188467025757,0.9855497479438782,0.9585550427436829
304964.3201936414,0.1584612876176834,0.41150256991386414,0.3407495319843292,0.9393097162246704,0.37941548228263855,1.5638072490692139,0.3263111412525177,2.258125066757202
304964.3241936414,0.16027112305164337,0.6111850738525391,0.1545219123363495,1.4942266941070557,-0.17093966901302338,2.5251104831695557,-0.5258338451385498,3.3190886974334717
304964.32819364144,0.18110457062721252,0.6983054876327515,0.1748274713754654,1.7299394607543945,-0.2213173508644104,2.9587621688842773,-0.7186774015426636,4.004466533660889
304964.33219364146,0.04674693942070007,0.5806465148925781,-0.1381169855594635,1.190794825553894,0.22622142732143402,0.8355540633201599,1.5379022359848022,0.08198918402194977
304964.3361936414,0.056103140115737915,0.9123855829238892,-0.1883174628019333,1.6202237606048584,0.7067617177963257,0.7212414741516113,3.006883382797241,-0.22260017693042755
304964.34019364143,0.06486420333385468,1.0447888374328613,-0.22840458154678345,1.8699843883514404,0.8007308840751648,0.8392857909202576,3.4351437091827393,-0.34580838680267334
304964.34419364145,-0.0026577964890748262,0.5713316202163696,0.051787927746772766,0.3577917218208313,1.3518158197402954,-0.23086273670196533,1.2011114358901978,3.3151206970214844
304964.3481936414,-0.018345212563872337,0.7720311284065247,0.3431558907032013,0.10376749187707901,1.825071930885315,0.5824386477470398,0.7314203977584839,4.549767017364502
304964.3521936414,-0.0369090735912323,0.8817465305328369,0.6750271916389465,-0.24514327943325043,2.0452961921691895,1.6032345294952393,0.10751159489154816,4.634244441986084
304964.35619364143,-0.04179123789072037,1.0003559589385986,0.7722717523574829,-0.3013404309749603,2.380511999130249,1.8271929025650024,-0.022590655833482742,5.589931488037109
304964.36019364145,-0.04058660939335823,0.3965539336204529,0.759592592716217,-0.07141917943954468,0.17473022639751434,1.7098468542099,0.8704121112823486,-0.06806715577840805
304964.3641936414,-0.06173444166779518,0.4435734748840332,1.1301246881484985,0.34351402521133423,-0.09248407185077667,1.6104296445846558,1.8609111309051514,0.7091642022132874
304964.3681936414,-0.07850649207830429,0.41796937584877014,1.3994858264923096,0.825361967086792,-0.34257176518440247,1.0870342254638672,2.6959991455078125,1.8680620193481445
304964.37219364144,-0.08871672302484512,0.4728534519672394,1.5901267528533936,0.9488145112991333,-0.43790337443351746,1.2422528266906738,3.1329638957977295,2.0723767280578613
304964.37619364145,-0.04361940175294876,0.07144930213689804,0.7326555848121643,1.0017991065979004,0.4879157543182373,-0.02087818644940853,0.24892590939998627,2.001319169998169
304964.3801936414,-0.053551506251096725,0.011716814711689949,0.7725299000740051,1.5063735246658325,1.278486967086792,0.5663105845451355,-0.0035825420636683702,1.4054675102233887
304964.3841936414,-0.05623142421245575,-0.06193853169679642,0.678145706653595,1.863484501838684,2.085782289505005,1.3199273347854614,-0.10307074338197708,0.4395591616630554
304964.38819364144,-0.06375355273485184,-0.075935497879982,0.7649139165878296,2.1553688049316406,2.379617691040039,1.4680235385894775,-0.22717659175395966,0.40632957220077515
304964.39219364146,-0.001228522276505828,-0.09835198521614075,0.03429676219820976,0.5072546005249023,1.16637122631073,1.7315372228622437,1.725019931793213,1.0857882499694824
304964.3961936414,0.01874031499028206,-0.11897458136081696,-0.10412010550498962,0.2859343886375427,1.0081621408462524,1.8911558389663696,2.3597819805145264,2.1877851486206055
304964.4001936414,0.04171633720397949,-0.11232900619506836,-0.24429692327976227,-0.040888480842113495,0.5659571290016174,1.5838282108306885,2.5522711277008057,2.992597818374634
304964.40419364144,0.047778595238924026,-0.13036282360553741,-0.3003365695476532,-0.08456063270568848,0.6335259675979614,1.833819031715393,3.006854772567749,3.566413402557373
304964.40819364146,0.08169909566640854,0.09482292830944061,0.062346406280994415,-0.05203653499484062,-0.16421213746070862,-0.22389182448387146,0.15914101898670197,-0.04377761483192444
304964.4121936414,0.13974347710609436,0.19130194187164307,0.18199650943279266,0.14404653012752533,-0.005952831823378801,-0.07621408253908157,0.20176750421524048,-0.2559201419353485
304964.41619364143,0.1597496122121811,0.21497473120689392,0.19272279739379883,0.16406656801700592,-0.010040169581770897,-0.10707475244998932,0.21769540011882782,-0.3686981201171875
304964.42019364145,0.12606218457221985,0.27302291989326477,0.46217188239097595,0.7218526005744934,1.0459431409835815,1.4901468753814697,2.9717776775360107,2.250129461288452
304964.4241936414,0.20661793649196625,0.4876103103160858,0.8495104908943176,1.2692524194717407,1.7397617101669312,2.187859296798706,4.573392868041992,2.9754247665405273
304964.4281936414,0.2634944021701813,0.6703768968582153,1.1734369993209839,1.6450068950653076,2.042222023010254,2.1239442825317383,4.242880821228027,2.2843241691589355
304964.43219364143,0.3112691640853882,0.8327596187591553,1.4401057958602905,1.894881248474121,2.0775656700134277,1.68240487575531,2.7289745807647705,0.9213530421257019
304964.43619364145,0.34107857942581177,0.9204235076904297,1.6020219326019287,2.0931999683380127,2.3076491355895996,1.7699499130249023,2.833289384841919,0.7761872410774231
304964.44019364147,0.25849398970603943,0.6629149913787842,0.7743656635284424,0.5861538052558899,0.1476326733827591,-0.22486916184425354,0.2772894501686096,0.902522623538971
304964.4441936414,0.4057905972003937,0.9947851300239563,1.0795910358428955,0.5920423269271851,-0.05788447707891464,-0.3130127787590027,0.8353785872459412,2.596543550491333
304964.44819364144,0.4662072956562042,1.1467374563217163,1.2541815042495728,0.6942479014396667,-0.05536334589123726,-0.37903881072998047,0.902452290058136,2.942143678665161
304964.45219364145,0.27432167530059814,0.528198778629303,0.2997961640357971,-0.2600894272327423,0.025313906371593475,1.0424768924713135,2.080869674682617,1.5187008380889893
304964.4561936414,0.3930361568927765,0.6498668789863586,0.16378428041934967,-0.23875905573368073,0.6662079095840454,1.9315669536590576,2.1780471801757812,0.814127504825592
304964.4601936414,0.4754660725593567,0.6812267303466797,-0.04622133448719978,-0.12276671826839447,1.4130927324295044,2.612016439437866,1.7499334812164307,-0.26411759853363037
304964.46419364144,0.5396890044212341,0.7709288597106934,-0.05791798606514931,-0.15727350115776062,1.6231690645217896,3.0867438316345215,2.0180702209472656,-0.37486377358436584
304964.46819364146,0.29361605644226074,0.23794463276863098,-0.11418264359235764,0.542455792427063,1.5087403059005737,0.5700781345367432,-0.2284547984600067,2.8108391761779785
304964.4721936414,0.4091319739818573,0.21312293410301208,-0.05513044446706772,1.165279507637024,1.5677883625030518,0.39235830307006836,0.7266089916229248,4.450096130371094
304964.4761936414,0.48568791151046753,0.13963313400745392,0.05078045278787613,1.7575371265411377,1.3301318883895874,0.15881435573101044,1.948372483253479,5.098662853240967
304964.48019364144,0.5517406463623047,0.1546023041009903,0.055575452744960785,2.01263165473938,1.5016891956329346,0.1348319798707962,2.2212235927581787,6.265639305114746
304964.48419364146,0.2739141881465912,-0.04402796924114227,0.35154831409454346,1.1367453336715698,-0.25117161870002747,0.7186824083328247,1.792935848236084,-0.34509703516960144
304964.4881936414,0.3680382966995239,-0.10087956488132477,0.7682532072067261,1.12106454372406,-0.2580825686454773,1.784874677658081,1.372211217880249,0.2906859517097473
304964.49219364143,0.42416784167289734,-0.15232473611831665,1.174429178237915,0.8818023204803467,-0.13264110684394836,2.7968146800994873,0.48358798027038574,1.3359888792037964
304964.49619364145,0.4808332324028015,-0.17206449806690216,1.34246027469635,0.9911220669746399,-0.19609573483467102,3.2635364532470703,0.5129314661026001,1.4633691310882568
304964.50019364146,0.21724742650985718,-0.058133117854595184,0.8098683953285217,-0.08789433538913727,0.9283447265625,0.8025546669960022,0.3204275369644165,1.8437912464141846
304964.5041936414,0.27719351649284363,-0.01240561157464981,1.1049491167068481,-0.13261549174785614,1.6686465740203857,0.44725465774536133,1.493748664855957,1.2005205154418945
304964.50819364144,0.30379343032836914,0.0581958182156086,1.2779345512390137,-0.1537206918001175,2.3025853633880615,-0.06365792453289032,2.7221550941467285,0.023574991151690483
304964.51219364145,0.34495627880096436,0.06593511253595352,1.4572392702102661,-0.1965273767709732,2.6578516960144043,-0.0936039388179779,3.1829416751861572,0.013625088147819042
304964.51619364147,0.13475871086120605,0.206218883395195,0.4179622530937195,0.3827745318412781,0.6922924518585205,0.569222092628479,1.1365174055099487,0.8537001609802246
304964.5201936414,0.15836448967456818,0.42006438970565796,0.3589121103286743,1.0123202800750732,0.45449385046958923,1.464451551437378,0.6932830214500427,2.1569020748138428
304964.52419364144,0.15942832827568054,0.6268374919891357,0.21423417329788208,1.6576859951019287,0.08789211511611938,2.3314285278320312,0.0856480821967125,3.256652355194092
304964.52819364145,0.1804138720035553,0.7146201133728027,0.23633970320224762,1.8950682878494263,0.06450112909078598,2.7047152519226074,-0.006066783796995878,3.889145612716675
304964.53219364147,0.05215875431895256,0.5118041634559631,-0.1235434040427208,1.123215913772583,-0.05939843878149986,0.9201850891113281,1.0396181344985962,0.304631769657135
304964.5361936414,0.04830944538116455,0.7746806144714355,-0.16689136624336243,1.2452952861785889,0.6386806964874268,0.6279186010360718,2.1862728595733643,0.45718419551849365
304964.54019364144,0.034484777599573135,0.9748393893241882,-0.16351811587810516,1.1510460376739502,1.429528832435608,0.17526668310165405,3.1721253395080566,0.7770324945449829
304964.54419364146,0.03857612609863281,1.10447359085083,-0.19729025661945343,1.305029034614563,1.6482905149459839,0.11973511427640915,3.7188291549682617,0.7037674188613892
304964.5481936415,-0.021868854761123657,0.5636953115463257,0.22655309736728668,0.08627615123987198,1.4943803548812866,0.2857615351676941,0.40220844745635986,2.459608793258667
304964.55219364143,-0.04352448508143425,0.7300118207931519,0.5991885662078857,-0.08694811165332794,1.6100398302078247,1.2212634086608887,0.315555214881897,2.107938051223755
304964.55619364145,-0.06367076188325882,0.8051126003265381,0.9852312803268433,-0.26311421394348145,1.3800888061523438,2.178025007247925,0.303224116563797,1.1177048683166504
304964.56019364146,-0.07236728072166443,0.9116222262382507,1.1233699321746826,-0.34765157103538513,1.5644958019256592,2.5361809730529785,0.19722004234790802,1.2679822444915771
304964.5641936415,-0.04477459937334061,0.3148396611213684,0.8167717456817627,0.17744572460651398,-0.04085793346166611,1.2828882932662964,3.7088637351989746,0.3529992401599884
304964.56819364143,-0.0662299394607544,0.32858148217201233,1.1818814277648926,0.7046882510185242,-0.031030641868710518,0.857063889503479,4.378813743591309,1.6289180517196655
304964.57219364145,-0.08028019219636917,0.28467926383018494,1.4345626831054688,1.2556732892990112,0.04779050126671791,0.14263775944709778,3.96111798286438,2.9890408515930176
304964.57619364146,-0.09311652928590775,0.31938862800598145,1.6418828964233398,1.4462231397628784,0.017229309305548668,0.11198260635137558,4.687747001647949,3.4742631912231445
304964.5801936415,-0.0359485000371933,0.022301696240901947,0.5346393585205078,1.0753881931304932,0.9453871846199036,0.047969236969947815,-0.1818506270647049,0.7248225808143616
304964.58419364144,-0.03840835765004158,-0.053547635674476624,0.5007546544075012,1.3324202299118042,1.75998854637146,0.9828763604164124,0.4350067377090454,0.6123052835464478
304964.58819364145,-0.03317227214574814,-0.13945522904396057,0.3541450798511505,1.385024070739746,2.473891258239746,2.0458364486694336,1.2870097160339355,0.6125832200050354
304964.59219364147,-0.03679222613573074,-0.16814477741718292,0.39553165435791016,1.5738056898117065,2.8717246055603027,2.3597583770751953,1.4409444332122803,0.5919049978256226
304964.5961936415,0.017971742898225784,-0.09043464809656143,-0.13689115643501282,0.03594421222805977,0.5668633580207825,1.1116572618484497,2.099079132080078,3.7091217041015625
304964.60019364144,0.0431264191865921,-0.1276262104511261,-0.2711022198200226,-0.15575562417507172,0.4910872280597687,1.232790470123291,2.6124496459960938,5.1148834228515625
304964.60419364145,0.04856063053011894,-0.15177203714847565,-0.32117563486099243,-0.18175803124904633,0.5894073247909546,1.461778163909912,3.09346342086792,6.2436418533325195
304964.60819364147,0.06595272570848465,0.053938522934913635,-0.012977623380720615,-0.22479407489299774,-0.11783517897129059,-0.09436172991991043,-0.24810317158699036,0.056465938687324524
304964.6121936414,0.12377653270959854,0.18876945972442627,0.20072302222251892,0.12572933733463287,0.23249199986457825,0.321193665266037,0.16431109607219696,0.6044645309448242
304964.61619364144,0.17766228318214417,0.33544445037841797,0.46120840311050415,0.5865045785903931,0.7270612716674805,0.9133177399635315,0.8060848712921143,1.4112247228622437
304964.62019364146,0.20236638188362122,0.3835213780403137,0.5255096554756165,0.6754029989242554,0.8066642880439758,0.9849163293838501,0.8384674787521362,1.5124367475509644
304964.6241936415,0.15135273337364197,0.36543187499046326,0.6812299489974976,0.9736205339431763,1.4857516288757324,1.6951359510421753,1.77791428565979,1.9431370496749878
304964.62819364143,0.24434098601341248,0.6231369376182556,1.1069624423980713,1.4648234844207764,1.9207760095596313,1.9300298690795898,1.7229961156845093,1.6005449295043945
304964.63219364145,0.32137614488601685,0.8508637547492981,1.4478285312652588,1.8207945823669434,2.059415578842163,1.799919605255127,1.1988266706466675,0.6999537348747253
304964.63619364146,0.3663410246372223,0.9673408269882202,1.6653348207473755,2.0767929553985596,2.3437085151672363,2.087337017059326,1.404421329498291,0.7957704067230225
304964.6401936415,0.2242458313703537,0.585083544254303,0.7576379776000977,0.6689882278442383,0.2095434069633484,-0.27194634079933167,-0.14152243733406067,0.20153270661830902
304964.64419364143,0.33874133229255676,0.8207808136940002,0.8775327205657959,0.5070073008537292,-0.10951317101716995,-0.0032635140232741833,0.7816265821456909,1.527687430381775
304964.64819364145,0.4262582063674927,0.9644626975059509,0.8608404397964478,0.20496554672718048,-0.4519226551055908,0.5039587020874023,1.9484806060791016,2.8444745540618896
304964.65219364146,0.48572227358818054,1.1013776063919067,0.9821299910545349,0.21182164549827576,-0.5578570365905762,0.5619426965713501,2.247119665145874,3.3382272720336914
304964.6561936415,0.2842859923839569,0.48629602789878845,0.10519876331090927,-0.2740955054759979,0.4210989475250244,1.7281241416931152,1.567139744758606,0.26976892352104187
304964.66019364144,0.4067760109901428,0.5632418394088745,-0.024248922243714333,-0.052441246807575226,1.2713555097579956,2.1202638149261475,1.207490086555481,0.04037347063422203
304964.66419364145,0.4919881522655487,0.558285117149353,-0.18122611939907074,0.2917669415473938,2.112205982208252,2.1392245292663574,0.5522336363792419,0.0937100276350975
304964.66819364147,0.5583259463310242,0.6311443448066711,-0.22141133248806,0.32789501547813416,2.457425594329834,2.4673566818237305,0.5251879096031189,-0.10017529875040054
304964.6721936415,0.2937081456184387,0.15082477033138275,-0.14982722699642181,0.8500936627388,1.265067219734192,-0.18285159766674042,0.22916433215141296,2.485942840576172
304964.67619364144,0.40572503209114075,0.10880154371261597,0.028590692207217216,1.4044947624206543,1.0097657442092896,-0.1140318214893341,1.5142947435379028,2.4081645011901855
304964.68019364146,0.4771091341972351,0.03471481427550316,0.2724141776561737,1.8359928131103516,0.45786523818969727,0.13029660284519196,2.781208038330078,1.5627448558807373
304964.6841936415,0.5420166254043579,0.0380927175283432,0.31780028343200684,2.1135334968566895,0.5039089918136597,0.11123616993427277,3.3130605220794678,1.82235848903656
304964.6881936415,0.2655007243156433,-0.0571020245552063,0.5758299827575684,0.8032021522521973,-0.1635955572128296,1.296724796295166,1.0523548126220703,-0.05757062882184982
304964.69219364144,0.35209259390830994,-0.11211653798818588,0.9665576815605164,0.6770384907722473,0.22640135884284973,1.9648654460906982,0.42388027906417847,1.3741905689239502
304964.69619364146,0.4007014036178589,-0.1641095131635666,1.2834992408752441,0.3655674159526825,0.7453075647354126,2.392897605895996,-0.34000375866889954,3.0337154865264893
304964.7001936415,0.45458924770355225,-0.18906763195991516,1.4685484170913696,0.40301695466041565,0.8248797059059143,2.7855448722839355,-0.5560572147369385,3.567317008972168
304964.7041936415,0.1979057937860489,-0.010201102122664452,0.839103639125824,-0.18079154193401337,1.4018406867980957,0.048322878777980804,2.4811010360717773,1.114210844039917
304964.70819364145,0.24853065609931946,0.08521623909473419,1.0156779289245605,-0.042318470776081085,1.8447519540786743,0.011215578764677048,3.939345359802246,0.67219078540802
304964.71219364146,0.26840025186538696,0.19908611476421356,1.0496716499328613,0.1624228060245514,2.015162944793701,0.10495349019765854,4.627264022827148,0.08874823898077011
304964.7161936415,0.30429983139038086,0.22828400135040283,1.1883338689804077,0.18109479546546936,2.2820184230804443,0.06354425102472305,5.657062530517578,-0.031792812049388885
304964.7201936415,0.11392608284950256,0.3647102117538452,0.18927912414073944,0.892163097858429,0.1418992429971695,1.6340852975845337,-0.030278095975518227,3.5764658451080322
304964.72419364145,0.15502393245697021,0.6166602373123169,0.1497514247894287,1.5457435846328735,-0.10872812569141388,2.882453441619873,-0.23323388397693634,4.969303131103516
304964.72819364147,0.17912700772285461,0.7071579098701477,0.18112654983997345,1.7786946296691895,-0.11144919693470001,3.3376355171203613,-0.37151265144348145,6.037818431854248
304964.7321936415,0.049741942435503006,0.5273534059524536,-0.14906933903694153,1.2223668098449707,-0.03658738359808922,0.9767046570777893,1.0167802572250366,0.2254306674003601
304964.73619364144,0.04579686000943184,0.7783263921737671,-0.13274681568145752,1.3494716882705688,0.6859666705131531,0.48741182684898376,2.0493884086608887,0.2783025801181793
304964.74019364145,0.03250778093934059,0.9586915969848633,-0.07902877032756805,1.229645848274231,1.5553239583969116,-0.2026093304157257,2.8606414794921875,0.5646858811378479
304964.74419364147,0.03650510311126709,1.0919979810714722,-0.10211819410324097,1.3991564512252808,1.781901478767395,-0.31153085827827454,3.411306619644165,0.46139630675315857
304964.7481936415,-0.014967699535191059,0.5729342103004456,0.2466723769903183,0.040418922901153564,1.4284504652023315,0.24196557700634003,0.2807776927947998,2.5944790840148926
304964.75219364144,-0.0350678376853466,0.7227901816368103,0.6008327007293701,-0.0952245369553566,1.4993793964385986,1.3713003396987915,0.11974561214447021,2.9609320163726807
304964.75619364146,-0.0544280968606472,0.7886718511581421,0.9599902033805847,-0.24533717334270477,1.2759029865264893,2.569096565246582,0.07798612117767334,2.40565824508667
304964.7601936415,-0.062433354556560516,0.8923244476318359,1.0983003377914429,-0.30565375089645386,1.4484905004501343,2.9884588718414307,-0.03007185459136963,2.8652939796447754
304964.7641936415,-0.054179947823286057,0.3256551921367645,0.8868585824966431,0.2077777087688446,-0.1923995167016983,1.3256399631500244,1.7812471389770508,0.3806452751159668
304964.76819364144,-0.07141116261482239,0.3305855393409729,1.2455389499664307,0.7706137299537659,-0.15439921617507935,0.9999687075614929,2.301074266433716,1.502472996711731
304964.77219364146,-0.08029236644506454,0.27517929673194885,1.4554425477981567,1.3770251274108887,0.020292213186621666,0.40819475054740906,2.3281948566436768,2.6567211151123047
304964.7761936415,-0.09089789539575577,0.30827000737190247,1.6685115098953247,1.5717873573303223,-0.025013655424118042,0.41997280716896057,2.7225894927978516,3.1134438514709473
304964.7801936415,-0.03563205525279045,0.004660377278923988,0.5380914807319641,1.1420940160751343,1.0144809484481812,0.044045887887477875,-0.4267294406890869,0.5668119192123413
304964.78419364145,-0.037592001259326935,-0.05422574654221535,0.504399299621582,1.4229261875152588,1.6890534162521362,1.1587697267532349,0.16498509049415588,0.10688252747058868
304964.78819364146,-0.033899884670972824,-0.1125592589378357,0.3564589023590088,1.4782404899597168,2.1928725242614746,2.4179742336273193,1.0919535160064697,-0.2398342490196228
304964.7921936415,-0.03700471669435501,-0.13297204673290253,0.4002699851989746,1.6967333555221558,2.508674383163452,2.785351037979126,1.2210625410079956,-0.4440312683582306
304964.7961936415,0.01176942978054285,-0.07552819699048996,-0.05252080410718918,0.19719929993152618,0.7572686672210693,1.3601410388946533,2.256542205810547,2.2583580017089844
304964.80019364145,0.04279513657093048,-0.061699215322732925,-0.13244228065013885,0.009125270880758762,0.47107163071632385,0.9939184188842773,2.0923452377319336,2.5503439903259277
304964.80419364147,0.07677042484283447,-0.025890575721859932,-0.19977569580078125,-0.2032630741596222,0.011271721683442593,0.27473241090774536,1.3820520639419556,2.1739628314971924
304964.8081936415,0.08748961985111237,-0.027405397966504097,-0.22903889417648315,-0.273875892162323,-0.0031180104706436396,0.29870784282684326,1.542484998703003,2.5167994499206543
304964.8121936415,0.10683746635913849,0.1760985106229782,0.23430036008358002,0.19309374690055847,0.3059898018836975,0.3709898889064789,0.13192079961299896,0.21102212369441986
304964.81619364145,0.17663049697875977,0.3289022445678711,0.4819135069847107,0.5768714547157288,0.7927594184875488,0.9387534260749817,0.9531854391098022,1.02177095413208
304964.82019364147,0.20239809155464172,0.3746885657310486,0.546520471572876,0.652328372001648,0.894573986530304,1.0494645833969116,1.077589511871338,1.0340023040771484
304964.8241936415,0.1500135064125061,0.37647324800491333,0.6867783069610596,0.9718737602233887,1.2989283800125122,1.8081833124160767,1.906410813331604,2.5952060222625732
304964.82819364144,0.24297359585762024,0.6233404278755188,1.085996150970459,1.415634036064148,1.7593697309494019,2.001124143600464,1.8753408193588257,2.0143678188323975
304964.83219364146,0.3210226893424988,0.8270942568778992,1.3925247192382812,1.7090109586715698,1.9610764980316162,1.8054871559143066,1.4314918518066406,0.7281131744384766
304964.8361936415,0.365752637386322,0.9457648396492004,1.6016919612884521,1.9630191326141357,2.24129319190979,2.087235450744629,1.6317414045333862,0.7969769239425659
304964.8401936415,0.23144398629665375,0.5890140533447266,0.7970388531684875,0.6952571868896484,0.244496688246727,-0.06974644213914871,-0.23322691023349762,0.3339119553565979
304964.84419364145,0.34608039259910583,0.8177145719528198,0.916349470615387,0.5603452920913696,-0.0149488914757967,0.13923126459121704,0.7232035398483276,1.8156877756118774
304964.84819364146,0.43213921785354614,0.9585899710655212,0.8832550048828125,0.2929188013076782,-0.2809852361679077,0.5092648863792419,1.9609404802322388,3.3229124546051025
304964.8521936415,0.4911862909793854,1.0907866954803467,1.0044831037521362,0.3135688006877899,-0.3875964283943176,0.5171658992767334,2.2517659664154053,3.8915274143218994
304964.8561936415,0.2807241976261139,0.4762380123138428,0.11928215622901917,-0.17250123620033264,0.45290836691856384,1.5758732557296753,1.7933006286621094,0.33770304918289185
304964.86019364145,0.4034944176673889,0.5532375574111938,0.0009715526248328388,0.05378789082169533,1.3008443117141724,2.037795066833496,1.348974585533142,0.1625722348690033
304964.86419364146,0.4886724650859833,0.5534011721611023,-0.13669580221176147,0.3593929708003998,2.118206262588501,2.1009438037872314,0.6064406037330627,0.2110036164522171
304964.8681936415,0.5570302605628967,0.6260992288589478,-0.17683053016662598,0.40159472823143005,2.476339817047119,2.4058258533477783,0.5888540744781494,0.06849684566259384
304964.8721936415,0.29315170645713806,0.1516808271408081,-0.15232135355472565,0.8145776391029358,1.192355751991272,-0.09927263110876083,0.4396856129169464,4.281208038330078
304964.87619364145,0.4039079248905182,0.11200962215662003,0.01727662794291973,1.41774320602417,1.0639238357543945,0.0032408474944531918,1.4688154458999634,4.274548053741455
304964.88019364147,0.4747706651687622,0.04222250357270241,0.24845144152641296,1.9325473308563232,0.6794551610946655,0.21982932090759277,2.510960102081299,3.035630941390991
304964.8841936415,0.5392900109291077,0.03946679085493088,0.2820972204208374,2.210089683532715,0.7474715709686279,0.17314483225345612,2.906310796737671,3.5301625728607178
304964.8881936415,0.26002970337867737,-0.0849590077996254,0.545320987701416,0.8022422194480896,-0.3283652663230896,1.4497877359390259,2.001208543777466,0.09065032005310059
304964.89219364146,0.34727993607521057,-0.12798935174942017,0.951093316078186,0.6962828040122986,0.06515592336654663,1.9647055864334106,1.0387672185897827,1.4675753116607666
304964.89619364147,0.39556077122688293,-0.15942898392677307,1.3068926334381104,0.40928152203559875,0.6437192559242249,2.2073371410369873,-0.0914471447467804,2.9775795936584473
304964.9001936415,0.45007529854774475,-0.18747007846832275,1.4897569417953491,0.4560728669166565,0.7239046096801758,2.5487499237060547,-0.4007866680622101,3.48427677154541
304964.9041936415,0.19541427493095398,-0.028020478785037994,0.8419705629348755,-0.18302634358406067,1.3209327459335327,0.053254395723342896,1.2589489221572876,0.9688025712966919
304964.90819364146,0.24672836065292358,0.07311291247606277,1.0055615901947021,-0.051422830671072006,1.8375351428985596,0.041611772030591965,2.179905414581299,0.3256297707557678
304964.9121936415,0.26818376779556274,0.19305972754955292,1.031006932258606,0.1491500437259674,2.083174228668213,0.13523271679878235,2.8030481338500977,-0.29869329929351807
304964.9161936415,0.3040104806423187,0.22166277468204498,1.1658169031143188,0.1692420244216919,2.3883068561553955,0.11590979993343353,3.262362003326416,-0.5681954026222229
304964.9201936415,0.11253776401281357,0.29341158270835876,0.2363658994436264,0.7603108882904053,0.24193637073040009,1.2272597551345825,0.04649672284722328,1.9824614524841309
304964.92419364146,0.1282118707895279,0.5199635624885559,0.11662700772285461,1.3373302221298218,0.01674521341919899,1.987486481666565,-0.04208960756659508,2.458038330078125
304964.9281936415,0.12505534291267395,0.7185238003730774,-0.05133536085486412,1.798805832862854,-0.1973075568675995,2.5403454303741455,0.09583183377981186,2.33880877494812
304964.9321936415,0.14094030857086182,0.8215419054031372,-0.07923731207847595,2.0842626094818115,-0.3133833110332489,2.9100329875946045,-0.02555546909570694,2.75115966796875
304964.9361936415,0.027944575995206833,0.5629715919494629,-0.15096251666545868,1.0041513442993164,0.47638005018234253,0.24002671241760254,1.7810359001159668,0.014095776714384556
304964.94019364147,0.016367735341191292,0.8045084476470947,-0.03952157869935036,0.9284222722053528,1.306467890739441,-0.11703163385391235,2.2322535514831543,1.1463329792022705
304964.9441936415,-0.001343701733276248,0.9698110222816467,0.11382147669792175,0.6268520355224609,2.137218713760376,-0.445296049118042,2.215155601501465,2.6013431549072266
304964.9481936415,-0.002503135707229376,1.0988858938217163,0.1346444934606552,0.7048817276954651,2.460737705230713,-0.5858604907989502,2.6134605407714844,2.9180617332458496
304964.9521936415,-0.024067193269729614,0.5389810800552368,0.4243103265762329,-0.11158715188503265,1.3184174299240112,1.1029189825057983,-0.20681913197040558,1.5015356540679932
304964.95619364147,-0.05041714012622833,0.6588862538337708,0.8576704859733582,-0.129653200507164,1.1435036659240723,1.865179181098938,0.4467128813266754,0.9510810971260071
304964.9601936415,-0.076087586581707,0.6946402192115784,1.2638195753097534,-0.09138669818639755,0.704113781452179,2.391934871673584,1.4269484281539917,0.11024439334869385
304964.9641936415,-0.08644986897706985,0.7857481241226196,1.4511910676956177,-0.1260872781276703,0.7657361030578613,2.757052421569824,1.5504891872406006,0.004447939805686474
304964.9681936415,-0.05767396464943886,0.23641876876354218,0.8622779846191406,0.5731242895126343,-0.13181954622268677,0.6040493845939636,2.089477777481079,1.3315705060958862
304964.9721936415,-0.07260593771934509,0.20834289491176605,1.1100893020629883,1.1541831493377686,0.2448199838399887,0.22117175161838531,1.797061562538147,2.3451461791992188
304964.9761936415,-0.0773208811879158,0.1301509290933609,1.2191282510757446,1.668424129486084,0.7372610569000244,-0.27776479721069336,1.0114216804504395,3.0311639308929443
304964.9801936415,-0.08820921182632446,0.14504192769527435,1.3821823596954346,1.9295402765274048,0.8175041675567627,-0.37864741683006287,1.126567006111145,3.5805938243865967
304964.9841936415,-0.025213610380887985,-0.07025124132633209,0.32263651490211487,1.014426589012146,1.4121720790863037,1.0667930841445923,0.34014615416526794,0.21924522519111633
304964.9881936415,-0.03022136352956295,-0.1316354125738144,0.3534846305847168,1.3382426500320435,2.2106335163116455,2.045377492904663,1.0794299840927124,0.4615139067173004
304964.9921936415,-0.036612194031476974,-0.14477680623531342,0.41105249524116516,1.5459675788879395,2.5378332138061523,2.3413844108581543,1.1635892391204834,0.4645499289035797
304964.9961936415,0.012210365384817123,-0.08968231081962585,-0.06845545768737793,0.1400485783815384,0.7197862863540649,1.3668808937072754,2.0371222496032715,3.850102424621582
304965.00019364146,0.04219333082437515,-0.07516086101531982,-0.12346275895833969,-0.04407978057861328,0.39895719289779663,1.1212157011032104,1.823148488998413,4.242084980010986
304965.0041936415,0.07568658143281937,-0.02726679854094982,-0.15332432091236115,-0.2468884140253067,-0.07103277742862701,0.5669783353805542,1.1234509944915771,3.5478639602661133
304965.0081936415,0.08617561310529709,-0.033323656767606735,-0.19264838099479675,-0.29589980840682983,-0.1312028020620346,0.5925775766372681,1.2724539041519165,4.232048988342285
304965.0121936415,0.08620157837867737,0.12241104990243912,0.1019342765212059,0.06891734898090363,0.011542566120624542,0.014060717076063156,-0.22040972113609314,-0.09067359566688538
304965.01619364147,0.1529514342546463,0.29843848943710327,0.42713916301727295,0.5858417749404907,0.6596973538398743,0.947165846824646,0.8893318176269531,1.2822296619415283
304965.0201936415,0.21315348148345947,0.4784044325351715,0.7752337455749512,1.1783578395843506,1.3815622329711914,2.0430774688720703,2.2743895053863525,3.0090861320495605
304965.0241936415,0.24299399554729462,0.5459408164024353,0.8888217806816101,1.348547339439392,1.5970464944839478,2.3255910873413086,2.628901720046997,3.449592113494873
304965.0281936415,0.16945204138755798,0.45057618618011475,0.8359172940254211,1.2191402912139893,1.370542049407959,1.640228271484375,3.266648769378662,1.5718536376953125
304965.03219364147,0.2686675190925598,0.7090465426445007,1.1835858821868896,1.5747673511505127,1.5378059148788452,1.354029893875122,2.2985634803771973,0.9451977610588074
304965.0361936415,0.35032129287719727,0.916253387928009,1.3975496292114258,1.68830144405365,1.3721485137939453,0.6259766817092896,0.7351809740066528,0.1655026376247406
304965.0401936415,0.3982630968093872,1.0419185161590576,1.5925759077072144,1.9433106184005737,1.5758075714111328,0.7073843479156494,0.6513486504554749,-0.0010783091420307755
304965.0441936415,0.24293461441993713,0.5752044916152954,0.6661525964736938,0.36166903376579285,-0.15053510665893555,-0.25366663932800293,0.4830600321292877,1.5734412670135498
304965.0481936415,0.36534973978996277,0.7808282375335693,0.6834400296211243,0.0963139608502388,-0.18490765988826752,0.5270386934280396,1.7482798099517822,2.2562434673309326
304965.0521936415,0.458100825548172,0.891469419002533,0.5642392635345459,-0.2683010697364807,-0.07927212119102478,1.5180891752243042,2.989896774291992,2.5058391094207764
304965.0561936415,0.5206645131111145,1.0177175998687744,0.635147213935852,-0.32959383726119995,-0.12978361546993256,1.7387011051177979,3.534254789352417,2.9264862537384033
304965.0601936415,0.2799568176269531,0.4018367826938629,-0.03279983252286911,-0.08550174534320831,0.995893120765686,1.762282133102417,0.8379015326499939,-0.15279258787631989
304965.0641936415,0.40887224674224854,0.44728225469589233,-0.15875527262687683,0.31864529848098755,1.6581156253814697,1.6203855276107788,0.3465307652950287,0.6360024213790894
304965.0681936415,0.5020493268966675,0.4190143942832947,-0.2859785258769989,0.8167226910591125,2.145387887954712,1.0781198740005493,-0.21852964162826538,1.8134421110153198
304965.0721936415,0.5715746283531189,0.473361611366272,-0.33701881766319275,0.9399129748344421,2.458847761154175,1.2260099649429321,-0.4229623079299927,2.021427869796753
304965.0761936415,0.29021525382995605,0.07300303131341934,0.018204981461167336,1.0421147346496582,0.741091251373291,-0.3060251772403717,1.2562005519866943,2.118704319000244
304965.0801936415,0.39560458064079285,0.02505934052169323,0.2751055061817169,1.5098094940185547,0.36310699582099915,0.31846702098846436,2.1143605709075928,1.227121353149414
304965.0841936415,0.4620377719402313,-0.04138208553195,0.5766834020614624,1.8138583898544312,-0.17633351683616638,1.168318510055542,2.6898796558380127,-0.1427384614944458
304965.0881936415,0.5231400728225708,-0.052160799503326416,0.6571143865585327,2.0944018363952637,-0.25069287419319153,1.3160659074783325,3.177654266357422,-0.2377980351448059
304965.0921936415,0.24579018354415894,-0.1128477081656456,0.7107993364334106,0.5059155225753784,-0.05626143887639046,1.5015575885772705,0.051476892083883286,1.0140869617462158
304965.0961936415,0.3259292542934418,-0.11852631717920303,1.1126362085342407,0.2892182767391205,0.631659984588623,1.6601521968841553,0.16577821969985962,2.3341031074523926
304965.1001936415,0.37047818303108215,-0.09592179954051971,1.4258636236190796,-0.04680661857128143,1.4109416007995605,1.485086441040039,0.45474469661712646,3.423428773880005
304965.1041936415,0.4205743968486786,-0.10983185470104218,1.6280421018600464,-0.06286171078681946,1.633891224861145,1.7233680486679077,0.4333038926124573,4.090723037719727
304965.1081936415,0.1758301705121994,0.049145303666591644,0.7418950796127319,-0.17110194265842438,1.4194971323013306,-0.43076926469802856,2.0717663764953613,-0.005558758042752743
304965.1121936415,0.21861667931079865,0.18436941504478455,0.8301557898521423,0.1557849645614624,1.4992649555206299,0.07053566724061966,2.1864449977874756,0.7883075475692749
304965.1161936415,0.2332615703344345,0.33172744512557983,0.7746236324310303,0.5836672782897949,1.2905402183532715,0.8181941509246826,1.7854523658752441,2.1370251178741455
304965.1201936415,0.26430749893188477,0.3783259093761444,0.8775300979614258,0.6637388467788696,1.47931706905365,0.9386703968048096,2.0388505458831787,2.2013626098632812
304965.12419364153,0.09107223153114319,0.3738047778606415,0.0635824128985405,0.9820160269737244,-0.039329998195171356,1.8232921361923218,-0.30524054169654846,4.54633903503418
304965.1281936415,0.09983282536268234,0.6278292536735535,-0.07018928229808807,1.430000901222229,0.05413319915533066,2.099609613418579,0.43592116236686707,3.7062079906463623
304965.1321936415,0.09321831911802292,0.8484408259391785,-0.22271303832530975,1.7171266078948975,0.19417428970336914,1.9308258295059204,1.4154572486877441,1.7662092447280884
304965.1361936415,0.10470880568027496,0.9639678597450256,-0.25236907601356506,1.9668474197387695,0.21111556887626648,2.222810983657837,1.6060937643051147,1.7828313112258911
304965.14019364154,0.012539580464363098,0.5716791152954102,-0.09117746353149414,0.6780230402946472,1.049547553062439,-0.06720923632383347,1.71345055103302,0.3348987400531769
304965.1441936415,2.9385334983089706e-06,0.8128609657287598,0.10065875202417374,0.4711964428424835,1.8774880170822144,0.1519627422094345,1.60221266746521,1.9083455801010132
304965.1481936415,-0.017437193542718887,0.9667381048202515,0.3524637818336487,0.10284499824047089,2.543649911880493,0.5451899766921997,1.043096661567688,3.553616523742676
304965.1521936415,-0.01995803415775299,1.1014673709869385,0.4024672508239746,0.10519536584615707,2.941627025604248,0.576079785823822,1.1471011638641357,4.122982025146484
304965.15619364154,-0.038316916674375534,0.4854144752025604,0.632710874080658,-0.18102975189685822,0.8038725852966309,1.4223339557647705,-0.34031665325164795,0.6225383281707764
304965.1601936415,-0.06248144432902336,0.5688931345939636,1.048242449760437,0.020528238266706467,0.4780269265174866,1.8110618591308594,1.728367805480957,0.5689623355865479
304965.1641936415,-0.08472653478384018,0.5685248970985413,1.3866662979125977,0.31348901987075806,-0.005864770617336035,1.9083839654922485,4.384106636047363,0.5776011347770691
304965.1681936415,-0.09574300795793533,0.6442279815673828,1.587343454360962,0.3386911153793335,-0.05367206037044525,2.199294328689575,4.862850189208984,0.5184972882270813
304965.17219364154,-0.044189851731061935,0.1561698615550995,0.8137924075126648,0.8748787045478821,-0.034605931490659714,-0.07276561111211777,2.3423619270324707,2.0244131088256836
304965.1761936415,-0.057266734540462494,0.12200896441936493,0.9454240798950195,1.4458991289138794,0.6060106754302979,-0.01705128140747547,1.4747663736343384,2.014742374420166
304965.1801936415,-0.0633113905787468,0.05612465739250183,0.935592532157898,1.8899929523468018,1.3527482748031616,0.1330355703830719,0.1537802666425705,1.3222134113311768
304965.18419364153,-0.07143018394708633,0.058480557054281235,1.0595782995224,2.1686065196990967,1.5706464052200317,0.06093144789338112,-0.02278979681432247,1.58309805393219
304965.18819364154,-0.013391355983912945,-0.10467205196619034,0.11652439087629318,0.7690740823745728,1.4975472688674927,1.5813992023468018,1.1031668186187744,0.2957839071750641
304965.1921936415,-0.008522452786564827,-0.1562398076057434,0.04845514893531799,0.8855947256088257,2.0763204097747803,2.6499056816101074,2.3943896293640137,1.3580968379974365
304965.1961936415,-0.010385903529822826,-0.18442469835281372,0.058994874358177185,1.0252256393432617,2.4183638095855713,3.0322823524475098,2.7535879611968994,1.485410213470459
304965.20019364153,0.02832402102649212,-0.0666656345129013,-0.08289932459592819,-0.12284079194068909,0.18711599707603455,0.8321886658668518,1.379167079925537,2.175837755203247
304965.2041936415,0.06736870855093002,-0.008309881202876568,-0.06944761425256729,-0.1824672520160675,-0.05931815505027771,0.31580838561058044,0.9351688623428345,1.422908067703247
304965.2081936415,0.10787805169820786,0.07945091277360916,-0.03462958335876465,-0.2104177176952362,-0.3252263367176056,-0.3749656677246094,0.22387681901454926,0.04092517867684364
304965.2121936415,0.12294450402259827,0.09188820421695709,-0.039165712893009186,-0.23434701561927795,-0.36817920207977295,-0.4985920786857605,0.16927090287208557,-0.021861860528588295
304965.21619364154,0.1079445332288742,0.20671570301055908,0.28473731875419617,0.38529568910598755,0.41368040442466736,0.5812409520149231,0.705406904220581,0.7346938252449036
304965.2201936415,0.18344183266162872,0.41464370489120483,0.683453381061554,0.9910139441490173,1.2934502363204956,1.6400679349899292,1.8757067918777466,1.9519940614700317
304965.2241936415,0.24925263226032257,0.6114161610603333,1.0807654857635498,1.6144611835479736,2.182481050491333,2.6844594478607178,3.0361433029174805,3.0107333660125732
304965.2281936415,0.28406402468681335,0.6995769143104553,1.2365925312042236,1.8354555368423462,2.5246126651763916,3.136457681655884,3.4933464527130127,3.520960569381714
304965.23219364154,0.1905478686094284,0.5276612043380737,0.830772340297699,1.1097991466522217,1.3101887702941895,1.0105613470077515,0.654653787612915,0.3671908378601074
304965.2361936415,0.29644185304641724,0.7833932042121887,1.1627061367034912,1.2630720138549805,1.135022759437561,0.6470493674278259,0.39375799894332886,0.9464506506919861
304965.2401936415,0.38050851225852966,0.9653750658035278,1.3732235431671143,1.195273518562317,0.7003225088119507,0.1313605159521103,0.14860554039478302,1.8455172777175903
304965.2441936415,0.4332323670387268,1.1014991998672485,1.5763256549835205,1.3676303625106812,0.7618983387947083,0.05261679366230965,0.09423308074474335,1.8958685398101807
304965.24819364154,0.260484904050827,0.5603944063186646,0.4831998348236084,0.05398854240775108,-0.12278290838003159,0.17884647846221924,1.5249563455581665,4.12001895904541
304965.2521936415,0.38589635491371155,0.7460386753082275,0.4081474840641022,-0.08727675676345825,0.22461743652820587,1.306098222732544,2.283834218978882,3.4708454608917236
304965.2561936415,0.47792643308639526,0.8386270403862,0.22199194133281708,-0.2352902591228485,0.7002155780792236,2.542201519012451,2.679053544998169,1.872291088104248
304965.26019364153,0.5443045496940613,0.9557559490203857,0.2497684508562088,-0.30538132786750793,0.7683296799659729,2.9124984741210938,3.0944716930389404,1.9770658016204834
304965.26419364155,0.2841944396495819,0.3196699321269989,-0.1486835926771164,0.2358618825674057,1.3521811962127686,1.149688959121704,-0.008984467014670372,-0.11077225208282471
304965.2681936415,0.40885597467422485,0.33163169026374817,-0.17105185985565186,0.7530838251113892,1.8543041944503784,0.8071674704551697,0.06964290887117386,1.6188249588012695
304965.2721936415,0.49601978063583374,0.2844271957874298,-0.1347646266222,1.2955816984176636,2.048675537109375,0.2364114373922348,0.41039174795150757,3.473560094833374
304965.27619364153,0.5651723742485046,0.3200635313987732,-0.1647215187549591,1.4876290559768677,2.3718299865722656,0.18025746941566467,0.3438301384449005,4.128990173339844
304965.28019364155,0.2814669907093048,-0.0005415554624050856,0.1636926531791687,1.1189370155334473,0.281681090593338,0.020304856821894646,1.6970245838165283,0.6523726582527161
304965.2841936415,0.38446044921875,-0.05975746735930443,0.5227014422416687,1.324883222579956,0.0746518149971962,0.9777066111564636,1.839115858078003,0.2311452478170395
304965.2881936415,0.44814997911453247,-0.11869844049215317,0.9076195359230042,1.3363516330718994,-0.14940911531448364,2.041285753250122,1.5000323057174683,-0.10583380609750748
304965.29219364154,0.509422242641449,-0.1458532214164734,1.0358351469039917,1.521315097808838,-0.22601662576198578,2.38004469871521,1.7702648639678955,-0.3073081374168396
304965.29619364155,0.23137333989143372,-0.09764783829450607,0.7641492486000061,0.21593128144741058,0.4384617805480957,1.5164660215377808,-0.40047261118888855,2.2852444648742676
304965.3001936415,0.2993214726448059,-0.08798693865537643,1.146225094795227,0.0859932228922844,1.1989117860794067,1.216673731803894,0.9539059996604919,2.5590660572052
304965.3041936415,0.33345621824264526,-0.05237365886569023,1.419238567352295,-0.07329095900058746,1.9322770833969116,0.6113579273223877,2.932893753051758,2.1505229473114014
304965.30819364154,0.3782270848751068,-0.057838160544633865,1.631772756576538,-0.1066318079829216,2.243533134460449,0.6455034017562866,3.203979730606079,2.540111780166626
304965.31219364156,0.15572495758533478,0.1238456517457962,0.6073524355888367,0.09011372178792953,1.203920841217041,-0.1590828001499176,4.002622127532959,0.18585124611854553
304965.3161936415,0.18861263990402222,0.2970401644706726,0.5934594869613647,0.6024928689002991,0.9818486571311951,0.7547504305839539,2.970088481903076,1.3064730167388916
304965.3201936415,0.19654013216495514,0.47244325280189514,0.45740586519241333,1.1836835145950317,0.46736565232276917,1.8756153583526611,1.0365973711013794,2.5838356018066406
304965.32419364154,0.22243286669254303,0.5396597981452942,0.5135036706924438,1.3497177362442017,0.522035539150238,2.1584761142730713,1.016940951347351,2.9823310375213623
304965.32819364156,0.0685277059674263,0.5186706781387329,-0.09048657864332199,1.2046632766723633,-0.11628594249486923,1.363519549369812,0.40535473823547363,1.0971400737762451
304965.3321936415,0.0878826156258583,0.8368803858757019,-0.17853593826293945,1.7877973318099976,-0.04946230724453926,1.709367275238037,1.4012070894241333,0.516930341720581
304965.33619364153,0.10121739655733109,0.9622279405593872,-0.2098565399646759,2.048577070236206,-0.10692451149225235,2.025387763977051,1.5983707904815674,0.6163119673728943
304965.34019364155,0.014808502048254013,0.5860688090324402,-0.11592728644609451,0.6760486364364624,0.9899243116378784,-0.179002046585083,1.9840120077133179,0.34125959873199463
304965.3441936415,-0.0010809728410094976,0.8181193470954895,0.09660529345273972,0.4952852427959442,1.7168474197387695,-0.03737320378422737,1.6102968454360962,1.536993384361267
304965.3481936415,-0.02313007041811943,0.9677659273147583,0.36709922552108765,0.17732705175876617,2.2731809616088867,0.3514646291732788,0.806833803653717,2.690770387649536
304965.35219364153,-0.02692914754152298,1.0975759029388428,0.42594513297080994,0.17193879187107086,2.661424160003662,0.3337947130203247,0.8655971884727478,3.151714324951172
304965.35619364155,-0.03937697410583496,0.4901702105998993,0.6218820810317993,-0.18348428606987,0.7725041508674622,1.7182295322418213,0.021139072254300117,0.39826643466949463
304965.3601936415,-0.05931262671947479,0.5700863599777222,1.0353578329086304,0.004106159321963787,0.3732479512691498,2.1579842567443848,1.3367249965667725,0.582657516002655
304965.3641936415,-0.07512030005455017,0.5654730200767517,1.364867925643921,0.303344190120697,-0.21135233342647552,2.21386981010437,2.8405256271362305,1.0850623846054077
304965.36819364154,-0.08573088049888611,0.6393613219261169,1.5688660144805908,0.3388160169124603,-0.27028119564056396,2.5758917331695557,3.2756552696228027,0.9951220750808716
304965.37219364155,-0.05463699251413345,0.15467272698879242,0.8069203495979309,0.8275261521339417,0.09264334291219711,-0.03329162299633026,1.4988141059875488,4.624312400817871
304965.3761936415,-0.06419549882411957,0.10983100533485413,0.961910605430603,1.345826506614685,0.7035642266273499,-0.040151163935661316,0.8618985414505005,4.20650577545166
304965.3801936415,-0.06345364451408386,0.03169906884431839,0.9655465483665466,1.7369630336761475,1.4169564247131348,0.12022463977336884,-0.0365825816988945,2.5923616886138916
304965.38419364154,-0.07208507508039474,0.031023763120174408,1.09931218624115,1.9975488185882568,1.6286356449127197,0.06909328699111938,-0.15234337747097015,2.8142385482788086
304965.38819364156,-0.019192015752196312,-0.08231298625469208,0.17117847502231598,0.8880411386489868,1.5341453552246094,1.4471323490142822,0.913975179195404,0.2655220925807953
304965.3921936415,-0.006135673262178898,-0.1378072053194046,0.031601693481206894,0.7315396666526794,1.6304879188537598,2.173786163330078,2.1792659759521484,1.522034764289856
304965.3961936415,0.014322116039693356,-0.18442292511463165,-0.15182167291641235,0.38681548833847046,1.3945776224136353,2.571408271789551,3.3316521644592285,2.8756606578826904
304965.40019364154,0.01693970151245594,-0.21476459503173828,-0.17346732318401337,0.4205261468887329,1.590311050415039,2.9949991703033447,3.8869171142578125,3.376173973083496
304965.40419364156,0.045752741396427155,-0.01844445802271366,-0.17017324268817902,-0.14778515696525574,-0.18170902132987976,0.07604087144136429,0.47716042399406433,1.2061896324157715
304965.4081936415,0.09407923370599747,0.07584572583436966,-0.028401905670762062,-0.07723961770534515,-0.1574312448501587,0.029644792899489403,0.06457468122243881,0.5357962846755981
304965.41219364153,0.14154300093650818,0.1922246813774109,0.1776382327079773,0.08269951492547989,-0.03643164038658142,0.12182429432868958,-0.32580381631851196,-0.24537751078605652
304965.41619364155,0.16117161512374878,0.22242224216461182,0.20078860223293304,0.0876595601439476,-0.06981503218412399,0.07924511283636093,-0.49752816557884216,-0.4543115198612213
304965.42019364156,0.12872694432735443,0.2937467396259308,0.4926895499229431,0.7322638630867004,1.0105663537979126,1.3297253847122192,1.583752989768982,1.8342524766921997
304965.4241936415,0.21215540170669556,0.5282136797904968,0.8990156650543213,1.4082221984863281,1.7654414176940918,2.0746309757232666,2.261003255844116,2.2733190059661865
304965.42819364154,0.2829437553882599,0.7390885353088379,1.2594155073165894,2.0135889053344727,2.3916051387786865,2.4951953887939453,2.555978775024414,2.224367618560791
304965.43219364155,0.32234635949134827,0.8411989808082581,1.4413096904754639,2.3128437995910645,2.7191758155822754,2.917501926422119,2.9921014308929443,2.587750196456909
304965.43619364157,0.20901022851467133,0.54917973279953,0.8319517374038696,0.9766682386398315,0.8176367878913879,0.3269287049770355,-0.12981678545475006,0.017797255888581276
304965.4401936415,0.3203219771385193,0.8072831630706787,1.0524598360061646,0.9169064164161682,0.442466676235199,0.21518321335315704,0.621974527835846,1.0203943252563477
304965.44419364154,0.4073733687400818,0.9889519810676575,1.1209087371826172,0.6488658785820007,-0.12113538384437561,0.11196495592594147,1.712485432624817,2.2328832149505615
304965.44819364155,0.46461647748947144,1.1234573125839233,1.2819437980651855,0.7273259162902832,-0.16342340409755707,0.08654434978961945,1.807407021522522,2.5498170852661133
304965.45219364157,0.2679843306541443,0.5237680673599243,0.3046700954437256,-0.08142967522144318,-0.06769996881484985,1.038883090019226,3.878355026245117,1.4633026123046875
304965.4561936415,0.3868221938610077,0.6497457027435303,0.17585411667823792,-0.1114172413945198,0.6303285956382751,1.9034631252288818,3.5129683017730713,0.9986659288406372
304965.46019364154,0.4716629981994629,0.693966269493103,-0.024646278470754623,-0.07594956457614899,1.4239386320114136,2.5742874145507812,2.0901167392730713,0.3251100480556488
304965.46419364156,0.5358720421791077,0.7870163321495056,-0.03942975774407387,-0.12898069620132446,1.6432663202285767,3.0093467235565186,2.2660632133483887,0.19103732705116272
304965.4681936416,0.3188420832157135,0.22014734148979187,-0.08072099834680557,0.7550164461135864,1.4371833801269531,0.29867881536483765,0.13806694746017456,1.9337961673736572
304965.47219364153,0.47718074917793274,0.2709489166736603,-0.08309264481067657,1.3652043342590332,1.9931094646453857,-0.09823602437973022,0.6491997241973877,3.73006272315979
304965.47619364155,0.550515353679657,0.3130045533180237,-0.10050080716609955,1.574855089187622,2.3256478309631348,-0.08829738944768906,0.6766648888587952,4.352755069732666
304965.48019364156,0.2846740186214447,0.013424578122794628,0.18448874354362488,1.1560429334640503,0.21305342018604279,0.06017458438873291,1.819321632385254,0.6934577226638794
304965.4841936415,0.38551807403564453,-0.0570463202893734,0.5225529670715332,1.3762073516845703,-0.07717569917440414,1.0523256063461304,1.9848769903182983,0.6442299485206604
304965.48819364153,0.4473017454147339,-0.14125633239746094,0.8788579106330872,1.3804633617401123,-0.3758062720298767,2.1320431232452393,1.6471009254455566,0.75499027967453
304965.49219364155,0.5076949000358582,-0.1629086136817932,1.0057669878005981,1.5678545236587524,-0.46341440081596375,2.4987924098968506,1.910953164100647,0.7105642557144165
304965.49619364156,0.23308278620243073,-0.11880083382129669,0.8311263918876648,0.2168271392583847,0.4865386188030243,1.282672643661499,-0.394821435213089,4.173061370849609
304965.5001936415,0.30297815799713135,-0.09387591481208801,1.2032698392868042,-0.01302228681743145,1.2323055267333984,0.9553433060646057,0.6421987414360046,4.033086776733398
304965.50419364154,0.33744367957115173,-0.03939146175980568,1.4357157945632935,-0.29553648829460144,1.9704428911209106,0.29022926092147827,1.9872633218765259,2.829970359802246
304965.50819364155,0.38245975971221924,-0.04277021810412407,1.6515092849731445,-0.3654758036136627,2.2580177783966064,0.3200642168521881,2.2407896518707275,3.1576831340789795
304965.51219364157,0.15648120641708374,0.1178121417760849,0.6014994382858276,0.04559050500392914,1.1915799379348755,-0.2549625039100647,1.6613997220993042,-0.44020479917526245
304965.5161936415,0.1889277845621109,0.2919001877307892,0.5735785961151123,0.554266631603241,1.0182758569717407,0.7801081538200378,1.2702044248580933,1.0373142957687378
304965.52019364154,0.1960165947675705,0.46979641914367676,0.42136985063552856,1.1263328790664673,0.5585089921951294,2.035753011703491,0.4412839412689209,2.7669007778167725
304965.52419364156,0.2218688577413559,0.5370857119560242,0.4743800759315491,1.292227029800415,0.6187052726745605,2.346580743789673,0.48544740676879883,3.222142457962036
304965.52819364157,0.07138140499591827,0.45091795921325684,-0.09484341740608215,1.1608015298843384,-0.18086010217666626,1.687761902809143,-0.02138279750943184,1.373775601387024
304965.5321936415,0.07119082659482956,0.7194008231163025,-0.16480089724063873,1.50858736038208,0.19104421138763428,1.330018162727356,1.3681527376174927,0.8036946654319763
304965.53619364154,0.05795689672231674,0.9350736737251282,-0.20937968790531158,1.647761344909668,0.7168282270431519,0.5681508779525757,2.932737350463867,-0.0391649529337883
304965.54019364156,0.06488130986690521,1.064758539199829,-0.2574477195739746,1.9016972780227661,0.8014877438545227,0.6311194896697998,3.3828868865966797,-0.08844306319952011
304965.5441936416,0.0026536204386502504,0.5914061069488525,0.02324972115457058,0.3116077780723572,1.3593380451202393,-0.27422186732292175,1.2175369262695312,1.6620757579803467
304965.54819364153,-0.020171048119664192,0.8064769506454468,0.3320280909538269,0.03823915496468544,1.8530287742614746,0.5131150484085083,0.7930489182472229,2.525559425354004
304965.55219364155,-0.04637090861797333,0.9292187094688416,0.6848016381263733,-0.30410516262054443,2.058345079421997,1.5464303493499756,0.14996202290058136,2.885664224624634
304965.55619364156,-0.053454384207725525,1.0580778121948242,0.784155547618866,-0.37476828694343567,2.3924076557159424,1.7663369178771973,0.11267323046922684,3.45061993598938
304965.5601936416,-0.048706114292144775,0.4052450954914093,0.7696253061294556,-0.05136941000819206,0.16953745484352112,1.4644050598144531,0.9407907724380493,0.07444815337657928
304965.56419364153,-0.06810688972473145,0.4510883390903473,1.1384923458099365,0.35046467185020447,-0.08549089729785919,1.4217116832733154,2.1022889614105225,0.8159989714622498
304965.56819364155,-0.08011487871408463,0.42441049218177795,1.3933179378509521,0.8264046311378479,-0.31937694549560547,1.0280742645263672,3.1141276359558105,1.7952749729156494
304965.57219364156,-0.09040810912847519,0.4781895875930786,1.5875588655471802,0.949521541595459,-0.4089619815349579,1.1794503927230835,3.6822268962860107,2.011561870574951
304965.5761936416,-0.04600958898663521,0.0638607069849968,0.7382116317749023,1.064152717590332,0.480844110250473,-0.432595819234848,0.433057576417923,2.1116089820861816
304965.58019364154,-0.05271107703447342,0.01568291336297989,0.772608757019043,1.5344126224517822,1.2316079139709473,0.22527141869068146,0.4369858205318451,1.265577793121338
304965.58419364155,-0.05192304775118828,-0.049052875488996506,0.667398989200592,1.8311169147491455,1.9831295013427734,1.1126106977462769,0.5258452296257019,0.021254822611808777
304965.58819364157,-0.05863301455974579,-0.056471142917871475,0.7540050745010376,2.1127474308013916,2.2725484371185303,1.268144965171814,0.5233164429664612,-0.13488124310970306
304965.5921936416,-0.006000866182148457,-0.1108369380235672,0.024690279737114906,0.5048087239265442,1.2951204776763916,1.757084846496582,3.2035558223724365,1.097649097442627
304965.59619364154,0.015732698142528534,-0.1264820247888565,-0.08586477488279343,0.32272544503211975,1.1169564723968506,1.7791742086410522,3.658503293991089,2.0661733150482178
304965.60019364156,0.04215768724679947,-0.11578850448131561,-0.19550785422325134,0.028929507359862328,0.6764827966690063,1.4503750801086426,3.2203636169433594,2.74276065826416
304965.6041936416,0.04850592091679573,-0.13104148209095,-0.24161262810230255,0.02467815950512886,0.7254542112350464,1.665732502937317,3.675990581512451,3.2030842304229736
304965.6081936416,0.06417495757341385,0.048708751797676086,-0.030512601137161255,-0.14740976691246033,-0.17263145744800568,-0.425321489572525,-0.31083136796951294,-0.09140206128358841
304965.61219364154,0.12244307994842529,0.18424385786056519,0.1984548270702362,0.18216709792613983,0.20719774067401886,0.024480095133185387,0.11660347878932953,0.7826550602912903
304965.61619364156,0.17718201875686646,0.3327804505825043,0.47279709577560425,0.5946328043937683,0.7260010838508606,0.7078980207443237,0.8890990018844604,2.220966100692749
304965.6201936416,0.20199134945869446,0.38005587458610535,0.5428190231323242,0.6719228625297546,0.8047063946723938,0.7715948820114136,0.9691647887229919,2.358823299407959
304965.6241936416,0.15056514739990234,0.3711090087890625,0.6739413142204285,1.0345009565353394,1.347617268562317,1.9175174236297607,2.0716607570648193,3.2109010219573975
304965.62819364155,0.24303694069385529,0.6345577239990234,1.0832046270370483,1.4663022756576538,1.8255131244659424,2.184011936187744,1.8831864595413208,2.180802822113037
304965.63219364156,0.31922611594200134,0.8619545102119446,1.3990743160247803,1.7263453006744385,2.0814363956451416,1.9851734638214111,1.2542805671691895,0.44655150175094604
304965.6361936416,0.36393865942955017,0.9850185513496399,1.6009175777435303,1.97072172164917,2.4124882221221924,2.2939841747283936,1.4277104139328003,0.43591609597206116
304965.6401936416,0.2636192739009857,0.6233206987380981,0.7910457253456116,0.5874722003936768,0.08823440223932266,-0.13916565477848053,0.3039186894893646,1.2186279296875
304965.64419364155,0.410573810338974,0.9536082744598389,1.0788862705230713,0.6268420219421387,-0.14712657034397125,-0.12654262781143188,0.8552681803703308,2.685528516769409
304965.64819364157,0.47216635942459106,1.094521164894104,1.2486501932144165,0.7312256097793579,-0.19601117074489594,-0.1530957818031311,0.9124493598937988,3.0036261081695557
304965.6521936416,0.27470555901527405,0.5470722913742065,0.34309399127960205,-0.2616586983203888,-0.14385025203227997,1.1750253438949585,1.901397466659546,1.3332823514938354
304965.65619364154,0.4018532335758209,0.6989696025848389,0.2824741303920746,-0.2411268800497055,0.36047008633613586,1.9441711902618408,2.144458055496216,1.0345667600631714
304965.66019364155,0.45052844285964966,0.6402115225791931,0.03845081478357315,-0.005158681888133287,1.1718047857284546,2.1932270526885986,1.3440827131271362,0.3640606999397278
304965.66419364157,0.47810956835746765,0.5327098369598389,-0.21431420743465424,0.3215908110141754,1.9535584449768066,2.0964794158935547,0.2684222459793091,0.10037095844745636
304965.6681936416,0.5134322643280029,0.5464605093002319,-0.27890750765800476,0.3797692060470581,2.292989492416382,2.31784725189209,0.04479820281267166,-0.1992652416229248
304965.6721936416,0.32262668013572693,0.1288546621799469,-0.056914322078228,1.073812484741211,1.0549970865249634,0.006624140776693821,0.7869426012039185,1.9481370449066162
304965.67619364156,0.4790850281715393,0.12397684901952744,-0.017100462689995766,1.843152642250061,1.2827743291854858,-0.007769187446683645,1.817199468612671,2.7412772178649902
304965.6801936416,0.5523309707641602,0.147800475358963,-0.02975057251751423,2.1205153465270996,1.5182474851608276,-0.020715197548270226,2.0725536346435547,3.217456340789795
304965.6841936416,0.27236366271972656,-0.02926957793533802,0.3621006906032562,0.9930663108825684,-0.0029980293475091457,0.8139103651046753,1.8145885467529297,-0.31086498498916626
304965.68819364154,0.36654192209243774,-0.07624907046556473,0.7517719864845276,1.0631812810897827,0.08405742794275284,1.8556649684906006,1.3958615064620972,0.4232146441936493
304965.69219364156,0.4227086007595062,-0.11947830021381378,1.1245802640914917,0.9224028587341309,0.24647216498851776,2.7963216304779053,0.6135589480400085,1.6097676753997803
304965.6961936416,0.4786622226238251,-0.14083844423294067,1.2828398942947388,1.0511369705200195,0.25280648469924927,3.2447309494018555,0.5910911560058594,1.7245543003082275
304965.7001936416,0.21794039011001587,-0.06670617312192917,0.8662694692611694,-0.06562848389148712,0.9609659910202026,0.8200150728225708,0.12056652456521988,2.212559938430786
304965.70419364155,0.2760978043079376,-0.0033335378393530846,1.1434121131896973,-0.15531982481479645,1.668931245803833,0.44854503870010376,1.5382179021835327,1.6392934322357178
304965.70819364156,0.30118289589881897,0.08860992640256882,1.2664586305618286,-0.2101113200187683,2.2442610263824463,-0.10326752066612244,3.05617618560791,0.5811083316802979
304965.7121936416,0.34103110432624817,0.10351048409938812,1.4455150365829468,-0.25313639640808105,2.590406894683838,-0.14520159363746643,3.583310127258301,0.5939072966575623
304965.7161936416,0.13419963419437408,0.20925743877887726,0.42207038402557373,0.40895581245422363,0.7284327149391174,0.5101256370544434,0.9617947340011597,0.7716774940490723
304965.72019364155,0.15823128819465637,0.41288527846336365,0.3514973223209381,0.9936805963516235,0.4713881313800812,1.5964924097061157,0.45256882905960083,1.9242380857467651
304965.72419364157,0.15978434681892395,0.6046821475028992,0.20007812976837158,1.5740045309066772,0.1017628014087677,2.6443042755126953,-0.24119482934474945,2.954429864883423
304965.7281936416,0.18087033927440643,0.6920408606529236,0.21143843233585358,1.8090087175369263,0.054684337228536606,3.0969080924987793,-0.33754247426986694,3.497344732284546
304965.7321936416,0.052525244653224945,0.5064494609832764,-0.07663533091545105,1.1310319900512695,-0.08814124017953873,1.0486754179000854,1.9704554080963135,0.21295641362667084
304965.73619364155,0.04668089747428894,0.7771043181419373,-0.11218800395727158,1.2593060731887817,0.6126120090484619,0.5757260918617249,2.8873703479766846,0.6370970606803894
304965.74019364157,0.030925996601581573,0.9767667651176453,-0.12107180804014206,1.168398380279541,1.4143718481063843,-0.156977578997612,3.250858783721924,1.4673014879226685
304965.7441936416,0.032956935465335846,1.1197240352630615,-0.1542235016822815,1.327667474746704,1.6425851583480835,-0.19538761675357819,3.70583176612854,1.4070483446121216
304965.7481936416,-0.010657289996743202,0.5837754011154175,0.24839040637016296,0.05564982816576958,1.416214942932129,0.41111043095588684,0.37840571999549866,3.565406322479248
304965.75219364156,-0.035255808383226395,0.7481971979141235,0.6013461947441101,-0.06846446543931961,1.588612675666809,1.312272071838379,0.38534948229789734,2.951795816421509
304965.7561936416,-0.06133217364549637,0.8246536254882812,0.9549505710601807,-0.1867196410894394,1.4278391599655151,2.2280383110046387,0.4542800188064575,1.6568409204483032
304965.7601936416,-0.07082773000001907,0.9349066019058228,1.0973327159881592,-0.23881615698337555,1.6322970390319824,2.5922048091888428,0.43915727734565735,1.7600821256637573
304965.7641936416,-0.056362345814704895,0.3083927035331726,0.8923949003219604,0.4182235300540924,-0.14331401884555817,1.0713945627212524,1.8005292415618896,0.7712380290031433
304965.76819364156,-0.08793208003044128,0.39931002259254456,1.3721622228622437,0.896761953830719,-0.2574731111526489,1.1688534021377563,2.740100383758545,2.0482733249664307
304965.7721936416,-0.1020309329032898,0.4623236060142517,1.591083288192749,1.0145379304885864,-0.29934948682785034,1.3660396337509155,3.191127061843872,2.282141923904419
304965.7761936416,-0.04460006579756737,0.0797526091337204,0.7427123188972473,1.1399937868118286,0.49872034788131714,-0.4342274069786072,0.9417137503623962,3.839597702026367
304965.78019364155,-0.051864080131053925,0.018483830615878105,0.7811850309371948,1.6173036098480225,1.3150752782821655,0.2867703437805176,0.39519235491752625,2.7740163803100586
304965.78419364156,-0.048695776611566544,-0.06025378406047821,0.6718211770057678,1.9051973819732666,2.151791572570801,1.2652217149734497,-0.11678062379360199,0.9677556157112122
304965.7881936416,-0.05579611659049988,-0.07682058960199356,0.7585461735725403,2.184225559234619,2.4504995346069336,1.4394868612289429,-0.30095285177230835,0.8071582913398743
304965.7921936416,-0.007660449482500553,-0.08418293297290802,-0.011575835756957531,0.5098586082458496,1.306889295578003,1.6211333274841309,1.7848411798477173,1.134239673614502
304965.79619364155,0.017055455595254898,-0.1014021635055542,-0.10149557143449783,0.29457929730415344,1.0878000259399414,1.820502758026123,2.452956199645996,2.372145175933838
304965.80019364157,0.046768732368946075,-0.10035878419876099,-0.17332680523395538,-0.05049515143036842,0.6000674962997437,1.605578899383545,2.64770770072937,3.2879951000213623
304965.8041936416,0.05370363965630531,-0.11598357558250427,-0.21100646257400513,-0.05783850699663162,0.647467315196991,1.8538556098937988,3.1222400665283203,3.946871042251587
304965.8081936416,0.06349369883537292,0.04215923324227333,-0.06011229008436203,-0.2089945673942566,-0.21272070705890656,-0.27005937695503235,-0.21851304173469543,-0.018556730821728706
304965.81219364156,0.12225592136383057,0.17812387645244598,0.17657242715358734,0.11713935434818268,0.18928593397140503,0.2263558954000473,0.3257386386394501,0.3844335079193115
304965.81619364157,0.17753224074840546,0.32967522740364075,0.4594290852546692,0.5624921917915344,0.7463215589523315,0.9206821918487549,1.0871326923370361,1.135398268699646
304965.8201936416,0.20258261263370514,0.37774571776390076,0.5250306725502014,0.6417458057403564,0.8505446314811707,1.042222261428833,1.2054675817489624,1.2080894708633423
304965.8241936416,0.14941982924938202,0.36615243554115295,0.6723186373710632,0.9514925479888916,1.240452766418457,1.7645927667617798,1.6313825845718384,2.353339433670044
304965.82819364156,0.24262677133083344,0.6088273525238037,1.1113340854644775,1.497434377670288,1.674586296081543,1.9630731344223022,1.6152957677841187,1.8963078260421753
304965.8321936416,0.3216066062450409,0.8150699734687805,1.482680082321167,1.912412166595459,1.8779033422470093,1.7856340408325195,1.1552038192749023,0.797888994216919
304965.8361936416,0.3657444715499878,0.9292345643043518,1.6936551332473755,2.192918539047241,2.148019790649414,2.0470781326293945,1.3724926710128784,0.8624043464660645
304965.8401936416,0.22802852094173431,0.5609678030014038,0.8017927408218384,0.647947371006012,0.253872811794281,-0.2256837636232376,-0.25404977798461914,0.4123191237449646
304965.84419364156,0.34609997272491455,0.7986431121826172,0.9081912636756897,0.496532142162323,0.019203903153538704,0.011044548824429512,0.9519486427307129,1.80411696434021
304965.8481936416,0.43836960196495056,0.9614084959030151,0.8630479574203491,0.20341014862060547,-0.25930023193359375,0.4533420205116272,2.4108028411865234,3.1865484714508057
304965.8521936416,0.4992513954639435,1.0980979204177856,0.9751237034797668,0.21572275459766388,-0.31164225935935974,0.4679768979549408,2.7427403926849365,3.7543137073516846
304965.8561936416,0.31150323152542114,0.4790680706501007,0.062040477991104126,-0.11837218701839447,0.6920416355133057,1.752623438835144,1.3122303485870361,0.4423321783542633
304965.86019364157,0.47075602412223816,0.6684356331825256,-0.006832357030361891,-0.02005627751350403,1.3925840854644775,2.6465365886688232,1.391061544418335,0.32077711820602417
304965.8641936416,0.5414767861366272,0.7710134387016296,-0.015235896222293377,-0.0376114621758461,1.5971484184265137,3.1392438411712646,1.6472446918487549,0.26744046807289124
304965.8681936416,0.29637354612350464,0.23466886579990387,-0.17070788145065308,0.5535746216773987,1.460147738456726,0.4932214021682739,-0.3942299485206604,1.2573169469833374
304965.87219364155,0.4134903848171234,0.2075551450252533,-0.11584805697202682,1.1348768472671509,1.6100239753723145,0.014412048272788525,0.5110815167427063,2.2863106727600098
304965.87619364157,0.48989638686180115,0.13319799304008484,-0.012370135635137558,1.6719640493392944,1.4096983671188354,-0.5132260322570801,1.648006796836853,3.0199713706970215
304965.8801936416,0.5572599768638611,0.1471915990114212,-0.024324363097548485,1.9230310916900635,1.6228457689285278,-0.6831282377243042,1.9208147525787354,3.5750248432159424
304965.8841936416,0.26865366101264954,-0.04950235038995743,0.368557870388031,1.1030513048171997,-0.07204928249120712,0.841427743434906,1.5886437892913818,-0.1627798080444336
304965.88819364156,0.364520788192749,-0.09751494973897934,0.7630322575569153,1.1053944826126099,-0.08700298517942429,1.8456193208694458,1.0987387895584106,1.0047417879104614
304965.8921936416,0.42176514863967896,-0.13478469848632812,1.133601188659668,0.8911063075065613,0.010185436345636845,2.7134008407592773,0.18057721853256226,2.689023733139038
304965.8961936416,0.47890031337738037,-0.15789629518985748,1.299515724182129,1.0101773738861084,-0.03800855204463005,3.165640115737915,0.19830195605754852,2.854886293411255
304965.9001936416,0.21922238171100616,-0.052093736827373505,0.8558416962623596,-0.005807600915431976,0.9636183977127075,0.6935202479362488,0.17659980058670044,4.106317043304443
304965.90419364156,0.2783258855342865,-0.007622203323990107,1.1128054857254028,-0.08522070199251175,1.6628143787384033,0.30211326479911804,2.074502944946289,2.9736528396606445
304965.9081936416,0.30357635021209717,0.05969969183206558,1.2391297817230225,-0.158725768327713,2.2044923305511475,-0.1746775358915329,4.409361839294434,0.8784987330436707
304965.9121936416,0.3441731035709381,0.06655794382095337,1.4041937589645386,-0.19767704606056213,2.5817372798919678,-0.30446624755859375,4.911888599395752,0.8219476938247681
304965.9161936416,0.1341773122549057,0.2024259865283966,0.42335888743400574,0.3519366383552551,0.7795214653015137,0.521686315536499,2.1216769218444824,0.6449533700942993
304965.92019364156,0.15828253328800201,0.41232630610466003,0.3586428165435791,0.9586532711982727,0.4606935381889343,1.5256092548370361,1.2169568538665771,2.122331142425537
304965.9241936416,0.15990179777145386,0.6128465533256531,0.20859281718730927,1.583446741104126,-0.013130818493664265,2.476356267929077,0.11686021834611893,3.4745264053344727
304965.9281936416,0.18103402853012085,0.6998131275177002,0.22776316106319427,1.8087230920791626,-0.06204839050769806,2.911552667617798,-0.12657921016216278,4.110960483551025
304965.9321936416,0.05240972340106964,0.5214795470237732,-0.12190161645412445,1.1643670797348022,0.07583463191986084,1.051202654838562,1.041690707206726,0.2277323305606842
304965.93619364157,0.04474280774593353,0.7862712740898132,-0.15393345057964325,1.2975108623504639,0.7274892926216125,0.644426167011261,2.1014652252197266,0.3811630308628082
304965.9401936416,0.02516051009297371,0.9885416626930237,-0.16354535520076752,1.202048897743225,1.4605566263198853,0.049274250864982605,2.9450342655181885,0.7498704791069031
304965.9441936416,0.02807684615254402,1.1262019872665405,-0.20075391232967377,1.3697131872177124,1.6825710535049438,-0.012364892289042473,3.4655189514160156,0.6968680024147034
304965.9481936416,-0.01358381099998951,0.559053897857666,0.21852098405361176,0.047990381717681885,1.4319618940353394,0.24935898184776306,0.3968237340450287,2.5805978775024414
304965.95219364157,-0.032980743795633316,0.723239004611969,0.5847052335739136,-0.05012879520654678,1.5923004150390625,1.338588833808899,0.2764680087566376,2.1234829425811768
304965.9561936416,-0.05078667774796486,0.7983561754226685,0.9534529447555542,-0.14576880633831024,1.428284764289856,2.544006824493408,0.22556540369987488,0.9244508147239685
304965.9601936416,-0.0579085536301136,0.9088523983955383,1.0966540575027466,-0.17833834886550903,1.6413177251815796,2.8962039947509766,0.11203379929065704,1.0655041933059692
304965.9641936416,-0.05187583714723587,0.3191004991531372,0.8867537379264832,0.1762237548828125,-0.16708672046661377,1.2661248445510864,1.7293390035629272,0.32686206698417664
304965.9681936416,-0.07183727622032166,0.3280934691429138,1.178881287574768,0.7457217574119568,-0.08965457230806351,0.7908405065536499,2.1192498207092285,1.5702837705612183
304965.9721936416,-0.08373026549816132,0.27739256620407104,1.3363516330718994,1.3485133647918701,0.10851578414440155,0.03183579444885254,2.1289560794830322,2.8349714279174805
304965.9761936416,-0.09625218063592911,0.310535192489624,1.513505220413208,1.558301568031311,0.09913880378007889,-0.021760661154985428,2.478170156478882,3.3575799465179443
304965.9801936416,-0.04466501995921135,-0.023536238819360733,0.4993734359741211,1.21393883228302,1.1905782222747803,0.39276570081710815,-0.03857216611504555,0.5395915508270264
304965.9841936416,-0.0592067576944828,-0.07739812880754471,0.6239898800849915,1.750002384185791,2.091834306716919,1.1267911195755005,0.014121255837380886,0.22261767089366913
304965.9881936416,-0.06880118697881699,-0.0918019562959671,0.7258986234664917,2.0198495388031006,2.400444507598877,1.2623496055603027,-0.047739725559949875,0.1526520699262619
304965.9921936416,-0.01103197131305933,-0.12546685338020325,-0.0022480932530015707,0.5153523087501526,1.217573881149292,1.7576876878738403,1.6467864513397217,0.9761539697647095
304965.99619364156,0.011370955035090446,-0.12018565088510513,-0.10465577989816666,0.313351035118103,1.0462132692337036,1.8842406272888184,2.2696497440338135,2.2512733936309814
304966.0001936416,0.040420349687337875,-0.08748440444469452,-0.21025919914245605,0.002883679000660777,0.6106346845626831,1.5643384456634521,2.500328540802002,3.3079566955566406
304966.0041936416,0.04583272337913513,-0.09608051180839539,-0.23388314247131348,-0.018460048362612724,0.6631594896316528,1.7879739999771118,2.960538387298584,3.9901509284973145
304966.0081936416,0.06611865758895874,0.038308754563331604,-0.026937538757920265,-0.18722985684871674,-0.2937123477458954,-0.12888143956661224,-0.2568521201610565,-0.04754609614610672
304966.01219364157,0.12448088079690933,0.17755846679210663,0.20404820144176483,0.1334274560213089,0.051800865679979324,0.2604094445705414,0.15492543578147888,0.9699345827102661
304966.0161936416,0.1787044256925583,0.3298768699169159,0.4745104908943176,0.5681334733963013,0.5885624885559082,0.8073604702949524,0.8922342658042908,2.5370981693267822
304966.0201936416,0.2037966549396515,0.37743642926216125,0.5422306060791016,0.6533889770507812,0.653715968132019,0.8632519841194153,0.9436798095703125,2.6768524646759033
304966.0241936416,0.15161308646202087,0.37222447991371155,0.6565651297569275,1.0025851726531982,1.324267029762268,1.6922458410263062,1.70258367061615,4.778351783752441
304966.02819364157,0.2437235713005066,0.6291816830635071,1.078472375869751,1.475504755973816,1.8546171188354492,1.9645940065383911,1.7105475664138794,3.9396488666534424
304966.0321936416,0.3193340599536896,0.851794421672821,1.4388724565505981,1.7798048257827759,2.1287224292755127,1.8496862649917603,1.2648624181747437,1.945494294166565
304966.0361936416,0.3641720414161682,0.96676105260849,1.639004111289978,2.0511302947998047,2.4620120525360107,2.15561842918396,1.484992265701294,1.9672315120697021
304966.0401936416,0.22532042860984802,0.5703447461128235,0.7761435508728027,0.718386173248291,0.2583566904067993,-0.08974099904298782,-0.2597966194152832,0.19824999570846558
304966.0441936416,0.34238117933273315,0.8072513341903687,0.8972955346107483,0.5034272074699402,0.08824727684259415,0.17192016541957855,1.1607118844985962,1.8473823070526123
304966.0481936416,0.4342578053474426,0.9591880440711975,0.8695583939552307,0.12165725976228714,-0.11456891894340515,0.5659161806106567,3.030886650085449,3.5488970279693604
304966.0521936416,0.49383509159088135,1.0958199501037598,0.986809253692627,0.13063757121562958,-0.16002564132213593,0.5888202786445618,3.368650197982788,4.174074649810791
304966.0561936416,0.2778414785861969,0.4789023697376251,0.11098279058933258,-0.19195914268493652,0.4835798144340515,1.6170921325683594,3.3113250732421875,0.3995002210140228
304966.0601936416,0.4058479368686676,0.5621068477630615,-0.026314474642276764,-0.01442665234208107,1.299945592880249,2.081604242324829,2.435070276260376,0.3444766700267792
304966.0641936416,0.49735796451568604,0.5626795887947083,-0.19762304425239563,0.2791241407394409,2.138540506362915,2.14723539352417,0.9617112874984741,0.46972382068634033
304966.0681936416,0.5657938718795776,0.6363446116447449,-0.22805555164813995,0.3059895932674408,2.4446377754211426,2.4817562103271484,0.8884108662605286,0.4424978494644165
304966.0721936416,0.28747010231018066,0.1544366478919983,-0.10783589631319046,0.8025407791137695,1.2121961116790771,0.05127782002091408,0.43570154905319214,1.974929928779602
304966.0761936416,0.4009418487548828,0.10680407285690308,0.044832877814769745,1.3398995399475098,1.0327870845794678,0.05406910181045532,1.6165213584899902,2.012526273727417
304966.0801936416,0.47449612617492676,0.02205226756632328,0.2566656470298767,1.764553427696228,0.6099603176116943,0.1438133418560028,2.810454845428467,1.558833360671997
304966.0841936416,0.5390929579734802,0.023041797801852226,0.28628426790237427,2.04152774810791,0.6690057516098022,0.07592528313398361,3.2892351150512695,1.8069407939910889
304966.0881936416,0.25514525175094604,-0.06671016663312912,0.5341610312461853,0.7775596976280212,-0.38102319836616516,1.44466233253479,0.9880694150924683,-0.24701237678527832
304966.0921936416,0.34067898988723755,-0.11120828241109848,0.9312106966972351,0.7024865746498108,0.039842694997787476,2.154254674911499,0.35347282886505127,1.2494943141937256
304966.0961936416,0.3891393840312958,-0.14019052684307098,1.2754756212234497,0.462453156709671,0.6456242203712463,2.520956039428711,-0.4103213846683502,2.900515079498291
304966.1001936416,0.44188112020492554,-0.17025621235370636,1.4590537548065186,0.5132550597190857,0.7349705696105957,2.9484221935272217,-0.574515700340271,3.406693458557129
304966.10419364163,0.20539401471614838,0.018297947943210602,0.8530974388122559,-0.28544729948043823,1.4979757070541382,0.08907303959131241,1.5736451148986816,0.9064684510231018
304966.1081936416,0.29540523886680603,0.07024969160556793,1.2006725072860718,-0.36314016580581665,2.2190945148468018,-0.01804102212190628,2.8507509231567383,0.40247902274131775
304966.1121936416,0.34112346172332764,0.07503311336040497,1.3850630521774292,-0.4345013201236725,2.569157123565674,-0.05531124770641327,3.3517472743988037,0.4938552975654602
304966.1161936416,0.13447943329811096,0.2040690779685974,0.42436984181404114,0.38558366894721985,0.8035277724266052,0.513457179069519,1.0406761169433594,0.8357194662094116
304966.1201936416,0.15815189480781555,0.4172101318836212,0.32843372225761414,1.0021817684173584,0.5321773290634155,1.5983537435531616,0.44241708517074585,2.104597806930542
304966.1241936416,0.15920482575893402,0.6221029758453369,0.13564199209213257,1.618114948272705,0.11014241725206375,2.6427340507507324,-0.3112875819206238,3.2204811573028564
304966.1281936416,0.18025895953178406,0.7103322148323059,0.14713594317436218,1.862883448600769,0.08203089237213135,3.1097724437713623,-0.49214765429496765,3.8076648712158203
304966.1321936416,0.049758393317461014,0.5125706195831299,-0.17430554330348969,1.0783895254135132,0.046805474907159805,1.1149810552597046,0.9728124737739563,0.15552373230457306
304966.1361936416,0.04367973655462265,0.7766698598861694,-0.18652459979057312,1.2412817478179932,0.6879013776779175,0.5771196484565735,2.2260780334472656,0.7432423233985901
304966.1401936416,0.028263142332434654,0.9786010384559631,-0.15144266188144684,1.1899135112762451,1.4242669343948364,-0.21914568543434143,3.3186259269714355,1.7122342586517334
304966.1441936416,0.0307207889854908,1.1141176223754883,-0.1769070327281952,1.3671563863754272,1.6454441547393799,-0.2827022969722748,3.928943634033203,1.759139895439148
304966.1481936416,-0.017253747209906578,0.571405291557312,0.2345757931470871,0.05499502643942833,1.5075353384017944,0.4053443968296051,0.27822211384773254,4.214868545532227
304966.1521936416,-0.040484074503183365,0.7250813245773315,0.5886082053184509,-0.043304331600666046,1.5626815557479858,1.4566529989242554,0.22363212704658508,3.436372995376587
304966.1561936416,-0.061499204486608505,0.793871283531189,0.9438786506652832,-0.14135867357254028,1.3273396492004395,2.5869059562683105,0.29997801780700684,1.6598012447357178
304966.1601936416,-0.0715089812874794,0.9006116986274719,1.0838358402252197,-0.167067289352417,1.5191466808319092,2.9764821529388428,0.2256620228290558,1.7482367753982544
304966.1641936416,-0.04474446177482605,0.32688772678375244,0.8336359262466431,0.22882002592086792,-0.09540323168039322,1.2326020002365112,1.7815803289413452,0.43145036697387695
304966.1681936416,-0.06773123145103455,0.3296603262424469,1.2133078575134277,0.795759379863739,-0.08403794467449188,0.8606529235839844,2.3677921295166016,1.7876222133636475
304966.1721936416,-0.08525770157575607,0.27098894119262695,1.463327407836914,1.4021426439285278,-0.0033671159762889147,0.25646060705184937,2.4269375801086426,3.221453905105591
304966.1761936416,-0.09664034843444824,0.3038390576839447,1.6764570474624634,1.607097864151001,-0.038356952369213104,0.20067785680294037,2.849790573120117,3.8056070804595947
304966.18019364163,-0.034239307045936584,-0.011119654402136803,0.5502049922943115,1.1665852069854736,1.010888934135437,0.1400492936372757,-0.43040621280670166,0.822597086429596
304966.1841936416,-0.03789016604423523,-0.065851591527462,0.5040602087974548,1.4148882627487183,1.6675403118133545,1.2143340110778809,0.7456845045089722,0.5287460684776306
304966.1881936416,-0.034940119832754135,-0.11758308857679367,0.34328991174697876,1.438643455505371,2.1513350009918213,2.422370433807373,2.4701950550079346,0.2209225594997406
304966.1921936416,-0.038967959582805634,-0.14032918214797974,0.3800971508026123,1.6433320045471191,2.487914562225342,2.788565158843994,2.6382546424865723,0.10777731239795685
304966.19619364163,0.0092363515868783,-0.11658737063407898,-0.07570847868919373,0.16773337125778198,0.805789589881897,1.4112721681594849,4.045845031738281,2.2236838340759277
304966.2001936416,0.037699323147535324,-0.09348302334547043,-0.1250942349433899,-0.04689691588282585,0.4917404353618622,1.095801830291748,3.3567192554473877,2.4321277141571045
304966.2041936416,0.06958184391260147,-0.041806042194366455,-0.1381116658449173,-0.310552716255188,-0.0016880020266398787,0.43252110481262207,1.684531331062317,1.977836012840271
304966.2081936416,0.07935263961553574,-0.047828610986471176,-0.16084997355937958,-0.36063867807388306,-0.022744974121451378,0.4522811472415924,1.777010440826416,2.315493106842041
304966.21219364164,0.08670821785926819,0.12481582909822464,0.14298856258392334,0.042119964957237244,0.08114302158355713,-0.04700201377272606,-0.13529573380947113,-0.40317296981811523
304966.2161936416,0.15404820442199707,0.2994353473186493,0.4453129768371582,0.5439327359199524,0.7616512775421143,0.9116464853286743,0.9761514067649841,0.8216724395751953
304966.2201936416,0.21483366191387177,0.4783678948879242,0.767333447933197,1.124480128288269,1.5523557662963867,2.0696821212768555,2.3408241271972656,2.295736074447632
304966.2241936416,0.24473097920417786,0.5457584261894226,0.8776618838310242,1.2871206998825073,1.7730547189712524,2.3464627265930176,2.6802000999450684,2.729301929473877
304966.22819364164,0.17188522219657898,0.44582313299179077,0.7792338132858276,1.115146279335022,1.5522624254226685,1.6624277830123901,1.5738719701766968,1.5764198303222656
304966.2321936416,0.27357131242752075,0.719393789768219,1.1803414821624756,1.4900435209274292,1.6377723217010498,1.330741047859192,1.007272720336914,0.7882437109947205
304966.2361936416,0.35684511065483093,0.9414836764335632,1.4665988683700562,1.639955997467041,1.390348196029663,0.5749555826187134,0.11528664082288742,-0.27758052945137024
304966.2401936416,0.4060586094856262,1.0715667009353638,1.6641240119934082,1.8877158164978027,1.5643560886383057,0.6420716643333435,0.041650183498859406,-0.4487248659133911
304966.24419364164,0.242219015955925,0.595425546169281,0.7021930813789368,0.3410261869430542,-0.038060445338487625,-0.1713620275259018,0.5157015323638916,1.7022442817687988
304966.2481936416,0.3642107844352722,0.7838961482048035,0.7083442807197571,0.07749855518341064,9.077970389625989e-06,0.6386932730674744,1.5784530639648438,2.5333292484283447
304966.2521936416,0.4571324288845062,0.8894983530044556,0.5801118612289429,-0.26568886637687683,0.12823347747325897,1.6728030443191528,2.6060640811920166,2.863300323486328
304966.25619364163,0.5193685293197632,1.0055339336395264,0.6491991877555847,-0.33746397495269775,0.10816456377506256,1.8946247100830078,3.027207136154175,3.4180691242218018
304966.26019364165,0.3183470368385315,0.39688095450401306,-0.0780753642320633,0.14926591515541077,1.2508008480072021,1.5520009994506836,0.5924392342567444,0.3484771251678467
304966.2641936416,0.48259425163269043,0.5372735857963562,-0.1568850874900818,0.3926432132720947,2.231736898422241,1.965277075767517,0.12678462266921997,1.2850151062011719
304966.2681936416,0.5536468625068665,0.6214944124221802,-0.19569575786590576,0.43594419956207275,2.5643138885498047,2.274146318435669,0.19012139737606049,1.378542423248291
304966.27219364163,0.2961670756340027,0.15315845608711243,-0.07608448714017868,0.8817430734634399,1.0980908870697021,-0.13329963386058807,0.39461231231689453,4.3385329246521
304966.2761936416,0.41105392575263977,0.10901308804750443,0.059009332209825516,1.4228540658950806,0.9852045178413391,-0.05264249071478844,1.6824582815170288,4.045361518859863
304966.2801936416,0.48527559638023376,0.034565217792987823,0.25636038184165955,1.8138562440872192,0.6298165917396545,0.17064924538135529,3.0631802082061768,2.5163235664367676
304966.2841936416,0.5506656765937805,0.031513381749391556,0.28640589118003845,2.081955671310425,0.7010897994041443,0.1489068865776062,3.5267488956451416,2.7512290477752686
304966.28819364164,0.26361149549484253,-0.07730984687805176,0.5524167418479919,0.8349612951278687,-0.3075416088104248,1.4134219884872437,0.9348316788673401,-0.13975323736667633
304966.2921936416,0.3508216440677643,-0.12846258282661438,0.9876336455345154,0.7115637063980103,0.13315513730049133,2.0210013389587402,0.45413199067115784,1.416351556777954
304966.2961936416,0.4005480706691742,-0.1666484773159027,1.3753770589828491,0.41047731041908264,0.7195413112640381,2.3073387145996094,-0.189470112323761,3.24253511428833
304966.3001936416,0.45500150322914124,-0.19073805212974548,1.5591341257095337,0.45274075865745544,0.8158503174781799,2.7063393592834473,-0.24416835606098175,3.7558624744415283
304966.30419364164,0.19979359209537506,-0.028481893241405487,0.8183573484420776,-0.1640070080757141,1.237261414527893,0.1730705350637436,1.1534076929092407,1.1198713779449463
304966.3081936416,0.24975116550922394,0.06642063707113266,1.0004562139511108,-0.04725821688771248,1.7096986770629883,0.030665703117847443,2.2259204387664795,0.5887669920921326
304966.3121936416,0.2685772478580475,0.18557097017765045,1.0447821617126465,0.15571750700473785,1.964687705039978,-0.056418873369693756,3.061940908432007,-0.039279721677303314
304966.3161936416,0.30407825112342834,0.21382644772529602,1.191391110420227,0.16230398416519165,2.269882917404175,-0.17771758139133453,3.60966420173645,-0.13286779820919037
304966.32019364164,0.11312985420227051,0.2909407317638397,0.24620859324932098,0.6857800483703613,0.23388440907001495,1.1818746328353882,0.21740712225437164,1.6902650594711304
304966.3241936416,0.13019472360610962,0.5204821825027466,0.1064893826842308,1.3447953462600708,-0.04622676596045494,1.9642064571380615,0.5150706171989441,2.166773796081543
304966.3281936416,0.12822143733501434,0.7256085276603699,-0.0978044793009758,1.9435373544692993,-0.3501695394515991,2.55845046043396,1.0041271448135376,2.1792285442352295
304966.33219364163,0.14488936960697174,0.8278409838676453,-0.1177697479724884,2.2486979961395264,-0.46953609585762024,2.96207594871521,0.9974656701087952,2.57564377784729
304966.33619364165,0.031350359320640564,0.5584136247634888,-0.18949240446090698,0.9971704483032227,0.48565971851348877,0.2768562436103821,3.9012529850006104,-0.5792742371559143
304966.3401936416,0.01892094500362873,0.7939539551734924,-0.06750357896089554,0.9208544492721558,1.2800878286361694,-0.016514770686626434,3.9191277027130127,0.6440800428390503
304966.3441936416,-0.0025338432751595974,0.9453045129776001,0.11886647343635559,0.6327255964279175,2.045322895050049,-0.25489699840545654,2.929980993270874,2.2231476306915283
304966.34819364164,-0.0036296285688877106,1.0746186971664429,0.1387954205274582,0.709324300289154,2.381453037261963,-0.3990340232849121,3.2418620586395264,2.5542244911193848
304966.35219364165,-0.028414571657776833,0.5096913576126099,0.4307694137096405,-0.09978179633617401,1.200972080230713,1.1230322122573853,-0.17404156923294067,1.570757508277893
304966.3561936416,-0.048623889684677124,0.6422669291496277,0.8777825236320496,-0.031001435592770576,0.9950098991394043,2.021939992904663,0.45461902022361755,0.7906733751296997
304966.3601936416,-0.06706799566745758,0.6900324821472168,1.3003653287887573,0.08935541659593582,0.48057782649993896,2.671429395675659,1.4329521656036377,-0.35935646295547485
304966.36419364164,-0.0761031061410904,0.7870426774024963,1.4867926836013794,0.09439503401517868,0.5369806289672852,3.1409077644348145,1.5592526197433472,-0.5062842965126038
304966.36819364165,-0.04603220149874687,0.23629610240459442,0.8476806282997131,0.5786794424057007,-0.2664940059185028,0.5131656527519226,2.2689685821533203,1.3959662914276123
304966.3721936416,-0.06503307074308395,0.2192278504371643,1.1132360696792603,1.1405271291732788,0.1328558623790741,0.08691567927598953,1.878011703491211,2.5718226432800293
304966.3761936416,-0.07779725641012192,0.15787917375564575,1.246369481086731,1.6341133117675781,0.6807237863540649,-0.3866255283355713,0.9118261933326721,3.3381357192993164
304966.38019364164,-0.08808553963899612,0.17231616377830505,1.4225049018859863,1.884342908859253,0.761551022529602,-0.5067435503005981,1.0137386322021484,4.000234603881836
304966.38419364166,-0.029289280995726585,-0.028973568230867386,0.3647248148918152,1.095641016960144,1.3228191137313843,0.7487805485725403,0.014965048991143703,-0.19044680893421173
304966.3881936416,-0.023019608110189438,-0.10090002417564392,0.25475096702575684,1.09524667263031,1.7375080585479736,1.7259528636932373,1.227129340171814,1.1963444948196411
304966.39219364163,-0.010485447011888027,-0.17394976317882538,0.06272907555103302,0.8801901340484619,1.926875114440918,2.589306354522705,2.665160655975342,3.1617531776428223
304966.39619364165,-0.012499485164880753,-0.19969666004180908,0.06542558968067169,0.9931914210319519,2.1974263191223145,3.062185049057007,3.041733503341675,3.466226816177368
304966.40019364166,0.03923340141773224,-0.0375930517911911,-0.18277579545974731,-0.17889182269573212,0.19588518142700195,0.5192853212356567,1.180499792098999,2.686750650405884
304966.4041936416,0.07212235778570175,-0.007766870316118002,-0.2466324418783188,-0.3508926331996918,0.0746685042977333,0.19040733575820923,1.0003780126571655,2.5260536670684814
304966.40819364163,0.08209998160600662,-0.009036049246788025,-0.2905274033546448,-0.3966982960700989,0.08053456991910934,0.2525465786457062,1.1884783506393433,2.827822685241699
304966.41219364165,0.08507522195577621,0.12269780039787292,0.11288896948099136,0.021521132439374924,-0.07213815301656723,-0.018120236694812775,-0.3626098036766052,-0.24765954911708832
304966.4161936416,0.15274834632873535,0.29293292760849,0.42710408568382263,0.5197314023971558,0.6414717435836792,0.8221772909164429,0.7546917200088501,1.1467517614364624
304966.4201936416,0.21413147449493408,0.46555912494659424,0.7652093172073364,1.068091869354248,1.4993737936019897,1.766815185546875,2.0693910121917725,2.8758504390716553
304966.42419364164,0.24407942593097687,0.5326135158538818,0.8773066997528076,1.2376301288604736,1.7167181968688965,2.045865535736084,2.4028725624084473,3.281179666519165
304966.42819364165,0.24173030257225037,0.6421359181404114,1.1690404415130615,1.669184923171997,1.9126408100128174,1.9901717901229858,1.8810430765151978,1.8826255798339844
304966.4321936416,0.26930251717567444,0.7130692601203918,1.2946757078170776,1.857849359512329,2.1668384075164795,2.2702836990356445,2.1996102333068848,2.2644150257110596
304966.4361936416,0.2954593896865845,0.7763084173202515,1.190471887588501,1.2617870569229126,0.8630274534225464,0.4703896939754486,-0.2523822784423828,-0.08455809950828552
304966.4401936416,0.3291011154651642,0.8677784204483032,1.339830994606018,1.454366683959961,1.0139319896697998,0.5755209922790527,-0.26834213733673096,-0.10265640169382095
304966.4441936416,0.2397574782371521,0.6009557247161865,0.6969963908195496,0.3065492808818817,-0.08303147554397583,-0.3938329517841339,0.43768206238746643,1.5725467205047607
304966.44819364155,0.35980385541915894,0.7938197255134583,0.693970263004303,0.10284760594367981,0.00824927818030119,0.38695672154426575,1.589863896369934,2.250913381576538
304966.45219364157,0.4509887993335724,0.902265727519989,0.5573512315750122,-0.13966438174247742,0.17068666219711304,1.4051371812820435,2.6647706031799316,2.5105159282684326
304966.4561936416,0.5124872922897339,1.0206490755081177,0.6254616379737854,-0.20197471976280212,0.16100436449050903,1.6267651319503784,3.1614441871643066,2.9484317302703857
304966.4601936416,0.2894667983055115,0.40037620067596436,-0.031612999737262726,-0.056211281567811966,0.9297915101051331,1.4953588247299194,0.8461534380912781,-0.16729646921157837
304966.46419364156,0.41426268219947815,0.4436889588832855,-0.08560406416654587,0.3206210136413574,1.65249764919281,1.4642560482025146,0.3840852677822113,0.9499592781066895
304966.4681936416,0.5022755265235901,0.4175960421562195,-0.13301804661750793,0.7891795039176941,2.2457218170166016,1.0830683708190918,-0.18381032347679138,2.394655227661133
304966.4721936416,0.5713229775428772,0.47184038162231445,-0.15381447970867157,0.9062631130218506,2.6123392581939697,1.2347134351730347,-0.2473367303609848,2.6558122634887695
304966.4761936416,0.2900412678718567,0.07488816231489182,0.007984887808561325,1.0463294982910156,0.7865131497383118,-0.3412744402885437,2.5856504440307617,1.9157105684280396
304966.48019364156,0.3993992507457733,0.02216412127017975,0.27313923835754395,1.5366545915603638,0.39417046308517456,0.3712998032569885,3.2852141857147217,1.4177086353302002
304966.4841936416,0.46800047159194946,-0.052107010036706924,0.5738314390182495,1.8512722253799438,-0.16748154163360596,1.2885410785675049,3.267530679702759,0.5725206136703491
304966.4881936416,0.5310325026512146,-0.061970025300979614,0.6565974354743958,2.1364893913269043,-0.23079916834831238,1.4563639163970947,3.7565910816192627,0.5096029043197632
304966.4921936416,0.2477480173110962,-0.09588947892189026,0.7099493145942688,0.503686785697937,0.06349898874759674,1.8118994235992432,0.13345324993133545,1.0044947862625122
304966.49619364156,0.3238958418369293,-0.11843995749950409,1.1483925580978394,0.2745760977268219,0.7248654961585999,1.7830203771591187,0.17469200491905212,2.38712477684021
304966.5001936416,0.3637325167655945,-0.10696691274642944,1.4918766021728516,-0.06530725210905075,1.511003017425537,1.3709561824798584,0.378531277179718,3.512040615081787
304966.5041936416,0.4127054810523987,-0.1292053759098053,1.7126665115356445,-0.09537239372730255,1.7195228338241577,1.5716220140457153,0.3066592216491699,4.164427280426025
304966.5081936416,0.17694808542728424,0.037674568593502045,0.7946708798408508,-0.08146614581346512,1.5358295440673828,-0.3372526466846466,1.9641023874282837,-0.09087737649679184
304966.51219364157,0.21918681263923645,0.17669934034347534,0.8597020506858826,0.20214281976222992,1.5756124258041382,0.18234668672084808,2.164886713027954,0.8229560256004333
304966.5161936416,0.23335081338882446,0.3289133906364441,0.773834764957428,0.5822727084159851,1.2977008819580078,0.9266847372055054,1.878369688987732,2.1765294075012207
304966.5201936416,0.2643827795982361,0.37589457631111145,0.8732057809829712,0.6636744141578674,1.4641939401626587,1.04887855052948,2.1776604652404785,2.2747321128845215
304966.5241936416,0.09199261665344238,0.3766082525253296,0.0767398402094841,0.9721224308013916,-0.2337668538093567,1.6735799312591553,-0.5253300666809082,3.5715115070343018
304966.52819364157,0.09894634783267975,0.6271143555641174,-0.07148414105176926,1.4585556983947754,-0.16830217838287354,1.9738620519638062,0.4039449989795685,2.7276477813720703
304966.5321936416,0.08915569633245468,0.8427203297615051,-0.23572328686714172,1.8251255750656128,0.028605399653315544,1.8608055114746094,1.6790204048156738,1.2865701913833618
304966.5361936416,0.10099191963672638,0.9584320187568665,-0.28286856412887573,2.0738906860351562,-0.021739419549703598,2.1711673736572266,1.8988484144210815,1.270222544670105
304966.5401936416,0.007426803931593895,0.64249587059021,0.02143556997179985,0.6215734481811523,1.2100589275360107,-0.24731890857219696,1.5883946418762207,1.0863457918167114
304966.5441936416,-0.0009127695811912417,0.975492537021637,0.1098795086145401,0.6744511127471924,2.079660654067993,-0.22048908472061157,1.9372546672821045,2.3699934482574463
304966.5481936416,-0.0014836771879345179,1.120643138885498,0.10999828577041626,0.7796298861503601,2.3971846103668213,-0.32486385107040405,2.2689151763916016,2.6948835849761963
304966.5521936416,-0.026297226548194885,0.5042159557342529,0.43173089623451233,-0.1154610812664032,1.096752405166626,1.032840609550476,-0.1569797247648239,1.4480029344558716
304966.55619364156,-0.047140851616859436,0.63759845495224,0.8403806090354919,-0.13934127986431122,0.9404720067977905,2.0406346321105957,0.48851555585861206,0.8812445998191833
304966.5601936416,-0.06744441390037537,0.6921684741973877,1.2079983949661255,-0.08052239567041397,0.5205842852592468,2.898484230041504,1.3719295263290405,0.04794279858469963
304966.5641936416,-0.07651393860578537,0.7865013480186462,1.3946322202682495,-0.13208188116550446,0.5754192471504211,3.3722000122070312,1.5273898839950562,-0.0953492596745491
304966.5681936416,-0.048976652324199677,0.23475731909275055,0.8496758341789246,0.5664290189743042,-0.2713509798049927,0.47087985277175903,1.9850881099700928,1.2081809043884277
304966.57219364156,-0.06624478846788406,0.21851423382759094,1.1116132736206055,1.2036596536636353,0.07382979989051819,0.025805260986089706,1.8108651638031006,2.071711778640747
304966.5761936416,-0.07577510178089142,0.15731178224086761,1.2194273471832275,1.7917909622192383,0.6067039966583252,-0.44229498505592346,1.1809632778167725,2.643343925476074
304966.5801936416,-0.08593795448541641,0.1739003211259842,1.3874419927597046,2.06982159614563,0.676650881767273,-0.5926149487495422,1.3096426725387573,3.1473000049591064
304966.5841936416,-0.02974787913262844,-0.05440378934144974,0.37173041701316833,1.1098169088363647,1.3755570650100708,0.7314208745956421,0.0025410791859030724,-0.01115494780242443
304966.58819364157,-0.026109669357538223,-0.09443456679582596,0.2811565399169922,1.1190223693847656,1.7683836221694946,1.6582636833190918,1.101644515991211,0.632818341255188
304966.5921936416,-0.014877164736390114,-0.13272644579410553,0.10850829631090164,0.90541011095047,1.936830997467041,2.4704980850219727,2.350006103515625,1.6706466674804688
304966.5961936416,-0.017156943678855896,-0.15154051780700684,0.11903625726699829,1.0227397680282593,2.2074685096740723,2.920319080352783,2.7245655059814453,1.785731315612793
304966.6001936416,0.02452981099486351,-0.08297985792160034,-0.14637117087841034,-0.10312632471323013,0.19038130342960358,0.7085425853729248,1.3691823482513428,2.322747230529785
304966.6041936416,0.06601911038160324,-0.019973592832684517,-0.13441342115402222,-0.2178187519311905,0.06594104319810867,0.35557955503463745,0.7724388241767883,1.691202163696289
304966.6081936416,0.10856298357248306,0.06906133145093918,-0.06151175498962402,-0.26905861496925354,-0.02623642235994339,-0.07401657104492188,-0.21241016685962677,0.6017640829086304
304966.6121936416,0.1240660548210144,0.07909784466028214,-0.07356712222099304,-0.3383892774581909,-0.05526328086853027,-0.20882873237133026,-0.25310853123664856,0.5920860767364502
304966.6161936416,0.10750780999660492,0.20414255559444427,0.29382142424583435,0.36105412244796753,0.4909820556640625,0.632892906665802,1.195812463760376,0.5538991093635559
304966.6201936416,0.18337705731391907,0.4150826334953308,0.6965067386627197,0.9930738210678101,1.2704936265945435,1.5820506811141968,2.3934805393218994,1.9942659139633179
304966.6241936416,0.24962441623210907,0.6167505383491516,1.1034679412841797,1.6271799802780151,2.0142147541046143,2.500570774078369,3.302093505859375,3.253218412399292
304966.6281936416,0.28452277183532715,0.7049540877342224,1.25777268409729,1.8819878101348877,2.3489227294921875,2.8815972805023193,3.8243212699890137,3.935662031173706
304966.6321936416,0.18993504345417023,0.492780864238739,0.8149526715278625,1.0223424434661865,1.3125592470169067,0.9841824769973755,0.6410396695137024,0.08148956298828125
304966.6361936416,0.29674074053764343,0.7681835293769836,1.1334747076034546,1.174423336982727,1.1323837041854858,0.5327600240707397,0.14653143286705017,0.6411922574043274
304966.6401936416,0.38324594497680664,0.9860023260116577,1.319281816482544,1.127447485923767,0.6743293404579163,-0.18134403228759766,-0.3520003855228424,1.6445505619049072
304966.6441936416,0.43579989671707153,1.1290831565856934,1.5200275182724,1.2865315675735474,0.7391638159751892,-0.2227984070777893,-0.5438122153282166,1.652638554573059
304966.6481936416,0.25617745518684387,0.5492348074913025,0.4855935871601105,0.046851009130477905,-0.21838219463825226,0.3919662833213806,1.4584424495697021,3.513486385345459
304966.6521936416,0.37756678462028503,0.7170029878616333,0.412809818983078,-0.12944838404655457,0.15737244486808777,1.280774474143982,2.241741180419922,2.876844644546509
304966.6561936416,0.46871763467788696,0.8051707148551941,0.23392616212368011,-0.3225310146808624,0.7159008383750916,2.201354742050171,2.648090124130249,1.5259262323379517
304966.6601936416,0.5328042507171631,0.9122408628463745,0.2581576108932495,-0.37907639145851135,0.8152673840522766,2.539074420928955,3.1249608993530273,1.6276301145553589
304966.6641936416,0.293026328086853,0.32562175393104553,-0.13507795333862305,0.23855528235435486,1.2935887575149536,1.314272403717041,-0.1363816112279892,-0.07049579173326492
304966.6681936416,0.4123987853527069,0.3326255679130554,-0.2020755559206009,0.8149060010910034,1.796718955039978,0.7938255667686462,0.0727698802947998,1.3100141286849976
304966.6721936416,0.49057191610336304,0.2798449993133545,-0.22874362766742706,1.4364981651306152,2.0303804874420166,-0.03583049774169922,0.5609999895095825,2.806757688522339
304966.6761936416,0.5584776401519775,0.31296467781066895,-0.2641837000846863,1.6468555927276611,2.373044013977051,-0.09959550946950912,0.5791067481040955,3.2641804218292236
304966.68019364163,0.2995571494102478,-0.025822235271334648,0.27777549624443054,1.2227267026901245,0.2079685926437378,0.35218098759651184,1.803918719291687,0.5034888386726379
304966.6841936416,0.4424656927585602,-0.08046659082174301,0.5678077340126038,1.7310503721237183,0.12560854852199554,1.1738017797470093,2.611063003540039,-0.048308610916137695
304966.6881936416,0.5094512104988098,-0.08699570596218109,0.647801399230957,2.0213305950164795,0.14436909556388855,1.3353544473648071,3.058558940887451,-0.10897297412157059
304966.6921936416,0.25002628564834595,-0.08179375529289246,0.6835392713546753,0.5083845853805542,0.07221817225217819,1.8641469478607178,0.17879612743854523,1.0139211416244507
304966.6961936416,0.3276653587818146,-0.1012498140335083,1.1410903930664062,0.2692963182926178,0.7472962141036987,1.9530771970748901,0.24842393398284912,2.145489454269409
304966.7001936416,0.3681568205356598,-0.10528590530157089,1.5176196098327637,-0.08675535023212433,1.515535831451416,1.5943433046340942,0.4793292284011841,3.064802646636963
304966.7041936416,0.41767555475234985,-0.12499240040779114,1.743333339691162,-0.12534008920192719,1.7395589351654053,1.8271490335464478,0.4432251751422882,3.644641160964966
304966.7081936416,0.17502620816230774,0.0593356229364872,0.7477460503578186,-0.1241975799202919,1.4609102010726929,-0.30489736795425415,1.8594976663589478,-0.30337390303611755
304966.7121936416,0.21764621138572693,0.1911119967699051,0.8138577342033386,0.18834681808948517,1.5312297344207764,0.15983131527900696,2.0721278190612793,0.13703136146068573
304966.7161936416,0.2323893904685974,0.3337715268135071,0.7464084029197693,0.5937480926513672,1.3137893676757812,0.8348509073257446,1.7607581615447998,0.954197883605957
304966.7201936416,0.26320886611938477,0.38045045733451843,0.8439478278160095,0.6674314737319946,1.510597586631775,0.9103289842605591,2.0368142127990723,1.0644519329071045
304966.7241936416,0.0925927460193634,0.3713301122188568,0.058279842138290405,1.0379055738449097,-0.11377076804637909,1.7730270624160767,-0.3311516344547272,1.8954347372055054
304966.7281936416,0.10029610991477966,0.6149346232414246,-0.043224625289440155,1.5450000762939453,-0.10348805040121078,2.0278923511505127,0.4371100068092346,1.7559397220611572
304966.7321936416,0.09136198461055756,0.8195158839225769,-0.15283675491809845,1.904171109199524,0.03514386713504791,1.8422422409057617,1.4752072095870972,1.1374988555908203
304966.7361936416,0.10321686416864395,0.9357703924179077,-0.20169313251972198,2.165083408355713,-0.006850928068161011,2.1201133728027344,1.671694278717041,1.2536828517913818
304966.7401936416,0.012293861247599125,0.5763232707977295,-0.10577739030122757,0.653084933757782,0.9886577725410461,-0.11721238493919373,1.8676235675811768,0.4097890257835388
304966.7441936416,-0.003036193083971739,0.8171451687812805,0.08297332376241684,0.5327370166778564,1.7087109088897705,0.10924790799617767,1.4933167695999146,1.722873330116272
304966.7481936416,-0.021076064556837082,0.9808685183525085,0.33475351333618164,0.27902504801750183,2.288309097290039,0.5243906378746033,0.7073416709899902,2.998196840286255
304966.7521936416,-0.02533010207116604,1.1158137321472168,0.37976571917533875,0.3006666898727417,2.640949010848999,0.5562994480133057,0.7694151997566223,3.5479111671447754
304966.75619364163,-0.0382583849132061,0.4639684855937958,0.5995410680770874,-0.26396289467811584,0.7424878478050232,1.6057590246200562,-0.20704753696918488,0.32566162943840027
304966.7601936416,-0.06272191554307938,0.5539352297782898,1.0338586568832397,-0.038274966180324554,0.47460728883743286,2.102290153503418,1.3181312084197998,0.40956443548202515
304966.7641936416,-0.08294235169887543,0.5614410638809204,1.4053025245666504,0.3074454069137573,0.07098472863435745,2.197064161300659,2.9969661235809326,0.8202077150344849
304966.7681936416,-0.09456058591604233,0.6370776295661926,1.6004605293273926,0.35534176230430603,0.025828422978520393,2.545950412750244,3.454721450805664,0.7247638702392578
304966.77219364163,-0.052133336663246155,0.14665602147579193,0.8588496446609497,0.8466412425041199,0.024022087454795837,-0.0907345712184906,1.2439980506896973,3.6832354068756104
304966.7761936416,-0.061377447098493576,0.10511312633752823,0.9940417408943176,1.4286714792251587,0.6681221723556519,-0.05338159576058388,0.7728270888328552,3.0092034339904785
304966.7801936416,-0.06216316297650337,0.03179330751299858,0.9696982502937317,1.88718843460083,1.4184170961380005,0.15814423561096191,0.13475629687309265,1.6893293857574463
304966.7841936416,-0.07018321752548218,0.034635476768016815,1.0977317094802856,2.1844401359558105,1.6314975023269653,0.14422063529491425,-0.012149365618824959,1.8691213130950928
304966.78819364164,-0.017833156511187553,-0.09125466644763947,0.18002264201641083,0.855276346206665,1.4398572444915771,1.325594425201416,0.7892410755157471,-0.4385968744754791
304966.7921936416,-0.007260488346219063,-0.12400656193494797,0.05480639636516571,0.7266966700553894,1.5741676092147827,1.8894294500350952,2.63370680809021,1.6026924848556519
304966.7961936416,0.009823113679885864,-0.13834147155284882,-0.11355337500572205,0.425765722990036,1.3742077350616455,2.1976428031921387,4.677055358886719,4.208292484283447
304966.8001936416,0.01143049169331789,-0.16507451236248016,-0.13668906688690186,0.463868111371994,1.5744891166687012,2.5243337154388428,5.2548418045043945,4.730357646942139
304966.80419364164,0.05866571143269539,0.012394441291689873,-0.05183589085936546,-0.13557502627372742,-0.2766176164150238,0.025715304538607597,0.9491701126098633,1.6450194120407104
304966.8081936416,0.10502145439386368,0.07507818937301636,-0.02994374744594097,-0.17399455606937408,-0.40730026364326477,-0.16629499197006226,0.6303571462631226,0.94474858045578
304966.8121936416,0.12018079310655594,0.08648064732551575,-0.049890656024217606,-0.1903209537267685,-0.5090852379798889,-0.22650828957557678,0.6659460067749023,0.9607416987419128
