lsl_time,C3,C4,CZ,CP3,CP4,CPZ,FC3,FC4
316045.81891448447,-650.01220703125,-1223.248291015625,-1095.4515380859375,-1168.2103271484375,-1065.2236328125,-662.242431640625,-1333.1893310546875,-1518.0145263671875
316045.8229144845,-644.614501953125,-1217.0552978515625,-1089.4267578125,-1162.1346435546875,-1059.9393310546875,-657.6895751953125,-1326.954833984375,-1512.0908203125
316045.8269144845,-640.6666870117188,-1213.4091796875,-1085.773193359375,-1158.486083984375,-1055.9615478515625,-653.4749145507812,-1323.3936767578125,-1508.361328125
316045.83091448445,-644.4451293945312,-1218.4791259765625,-1090.6363525390625,-1163.444091796875,-1059.632080078125,-655.9474487304688,-1328.7359619140625,-1513.16845703125
316045.83491448447,-649.9052734375,-1224.090576171875,-1096.1519775390625,-1169.0421142578125,-1065.0538330078125,-661.2017211914062,-1334.333984375,-1518.7349853515625
316045.8389144845,-649.30029296875,-1222.5863037109375,-1094.7550048828125,-1167.6417236328125,-1064.5487060546875,-661.5869140625,-1332.5174560546875,-1517.32568359375
316045.8429144845,-644.0230102539062,-1216.4451904296875,-1088.768798828125,-1161.630615234375,-1059.3553466796875,-657.2154541015625,-1326.177490234375,-1511.31396484375
316045.84691448446,-639.8258666992188,-1212.4149169921875,-1084.7435302734375,-1157.6197509765625,-1055.059814453125,-652.7919921875,-1322.20166015625,-1507.1142578125
316045.8509144845,-643.9151000976562,-1217.837158203125,-1089.9029541015625,-1162.9334716796875,-1059.1640625,-655.6886596679688,-1327.7696533203125,-1512.2176513671875
316045.8549144845,-649.88232421875,-1224.218017578125,-1096.1119384765625,-1169.3128662109375,-1065.3875732421875,-661.6298828125,-1334.0546875,-1518.55859375
316045.8589144845,-649.5865478515625,-1223.0469970703125,-1095.083740234375,-1168.3232421875,-1065.24462890625,-662.2888793945312,-1332.697265625,-1517.5833740234375
316045.86291448446,-644.2852783203125,-1216.805419921875,-1089.0645751953125,-1162.2520751953125,-1059.9993896484375,-657.8734130859375,-1326.31982421875,-1511.4832763671875
316045.8669144845,-640.37890625,-1213.160888671875,-1085.416015625,-1158.572509765625,-1056.0780029296875,-653.7387084960938,-1322.771240234375,-1507.7098388671875
316045.8709144845,-644.5006103515625,-1218.5999755859375,-1090.600830078125,-1163.828857421875,-1060.125244140625,-656.5904541015625,-1328.45263671875,-1512.878662109375
316045.8749144845,-649.9027709960938,-1224.218994140625,-1096.0999755859375,-1169.475341796875,-1065.533447265625,-661.8242797851562,-1334.0587158203125,-1518.4971923828125
316045.87891448446,-649.4921264648438,-1222.82763671875,-1094.8824462890625,-1168.2303466796875,-1065.1357421875,-662.2738647460938,-1332.512939453125,-1517.3350830078125
316045.8829144845,-643.9645385742188,-1216.308349609375,-1088.6019287109375,-1161.7989501953125,-1059.578125,-657.5501708984375,-1325.92822265625,-1510.9781494140625
316045.8869144845,-639.872802734375,-1212.3709716796875,-1084.6905517578125,-1157.753662109375,-1055.2950439453125,-653.0867309570312,-1322.084228515625,-1506.9029541015625
316045.8909144845,-643.8845825195312,-1217.6837158203125,-1089.7769775390625,-1162.8291015625,-1059.1934814453125,-655.7846069335938,-1327.6168212890625,-1511.971923828125
316045.89491448447,-649.4801025390625,-1223.552001953125,-1095.544921875,-1168.6324462890625,-1064.759033203125,-661.0948486328125,-1333.5660400390625,-1517.9376220703125
316045.8989144845,-649.1654052734375,-1222.2935791015625,-1094.4627685546875,-1167.4449462890625,-1064.42724609375,-661.5924682617188,-1332.2301025390625,-1516.962890625
316045.9029144845,-643.8905639648438,-1216.0784912109375,-1088.4581298828125,-1161.30078125,-1059.1160888671875,-657.0630493164062,-1325.8927001953125,-1510.9237060546875
316045.9069144845,-640.1381225585938,-1212.7471923828125,-1085.0693359375,-1157.7476806640625,-1055.364013671875,-652.9733276367188,-1322.5654296875,-1507.498046875
316045.91091448447,-643.9805297851562,-1218.0250244140625,-1090.1002197265625,-1162.7281494140625,-1059.1884765625,-655.4848022460938,-1328.1309814453125,-1512.598388671875
316045.9149144845,-649.7833862304688,-1224.151611328125,-1096.10546875,-1168.8482666015625,-1065.00634765625,-660.9774169921875,-1334.3638916015625,-1518.867431640625
316045.9189144845,-649.2128295898438,-1222.686279296875,-1094.7890625,-1167.473876953125,-1064.437744140625,-661.2107543945312,-1332.8187255859375,-1517.7108154296875
316045.9229144845,-643.76171875,-1216.350341796875,-1088.616943359375,-1161.202392578125,-1059.0001220703125,-656.5075073242188,-1326.4227294921875,-1511.5892333984375
316045.9269144845,-640.0806274414062,-1212.9520263671875,-1085.170166015625,-1157.7996826171875,-1055.2611083984375,-652.5386962890625,-1323.06591796875,-1508.0216064453125
316045.9309144845,-644.268798828125,-1218.4700927734375,-1090.4425048828125,-1163.2427978515625,-1059.4747314453125,-655.6292114257812,-1328.7359619140625,-1513.1954345703125
316045.9349144845,-649.678955078125,-1224.003173828125,-1095.8951416015625,-1168.8792724609375,-1064.9359130859375,-661.0313720703125,-1334.2025146484375,-1518.6370849609375
316045.9389144845,-649.2078247070312,-1222.5543212890625,-1094.6322021484375,-1167.624267578125,-1064.5577392578125,-661.5949096679688,-1332.5848388671875,-1517.380126953125
316045.9429144845,-644.1009521484375,-1216.5721435546875,-1088.865234375,-1161.806884765625,-1059.605712890625,-657.5376586914062,-1326.4188232421875,-1511.519775390625
316045.9469144845,-640.4049072265625,-1213.1888427734375,-1085.5079345703125,-1158.466552734375,-1055.946533203125,-653.6517944335938,-1323.1209716796875,-1507.985107421875
316045.9509144845,-644.8478393554688,-1218.8763427734375,-1091.0240478515625,-1164.1390380859375,-1060.360107421875,-656.9166870117188,-1329.022705078125,-1513.374267578125
316045.95491448446,-650.2510375976562,-1224.4613037109375,-1096.5291748046875,-1169.800537109375,-1065.836181640625,-662.2474365234375,-1334.57080078125,-1518.9613037109375
316045.9589144845,-649.483642578125,-1222.7581787109375,-1094.986328125,-1168.25732421875,-1065.148193359375,-662.4672241210938,-1332.707763671875,-1517.43603515625
316045.9629144845,-644.3826904296875,-1216.7259521484375,-1089.1600341796875,-1162.39697265625,-1060.0782470703125,-658.233642578125,-1326.5382080078125,-1511.5382080078125
316045.9669144845,-640.7326049804688,-1213.3046875,-1085.7313232421875,-1158.9766845703125,-1056.30029296875,-654.25732421875,-1323.1319580078125,-1507.9111328125
316045.97091448447,-644.7738647460938,-1218.7154541015625,-1090.8392333984375,-1164.2154541015625,-1060.30712890625,-657.0470581054688,-1328.699462890625,-1512.99755859375
316045.9749144845,-650.3933715820312,-1224.5537109375,-1096.5291748046875,-1170.0347900390625,-1065.946533203125,-662.4971923828125,-1334.4722900390625,-1518.847900390625
316045.97891448444,-649.4336547851562,-1222.644287109375,-1094.756591796875,-1168.2232666015625,-1064.98779296875,-662.4197998046875,-1332.3380126953125,-1517.1373291015625
316045.98291448446,-643.795654296875,-1216.093994140625,-1088.36767578125,-1161.7650146484375,-1059.3433837890625,-657.5736694335938,-1325.6983642578125,-1510.7718505859375
316045.98691448447,-639.979248046875,-1212.496337890625,-1084.760498046875,-1158.119384765625,-1055.3665771484375,-653.3545532226562,-1322.2601318359375,-1507.0552978515625
316045.9909144845,-644.419677734375,-1218.229248046875,-1090.255126953125,-1163.635009765625,-1059.6771240234375,-656.4295654296875,-1328.2752685546875,-1512.5689697265625
316045.99491448444,-649.7848510742188,-1223.6959228515625,-1095.6558837890625,-1169.076171875,-1064.9698486328125,-661.5679321289062,-1333.8453369140625,-1518.0794677734375
316045.99891448446,-648.860595703125,-1221.7110595703125,-1093.8802490234375,-1167.1851806640625,-1063.9981689453125,-661.5040283203125,-1331.740478515625,-1516.29296875
316046.0029144845,-643.5009155273438,-1215.4534912109375,-1087.82958984375,-1160.9560546875,-1058.7203369140625,-657.0250854492188,-1325.2691650390625,-1510.184814453125
316046.0069144845,-640.088623046875,-1212.4874267578125,-1084.8399658203125,-1157.87255859375,-1055.35400390625,-653.298583984375,-1322.30712890625,-1507.1478271484375
316046.01091448445,-644.2952880859375,-1218.075927734375,-1090.1937255859375,-1163.30419921875,-1059.5272216796875,-656.1492919921875,-1328.161376953125,-1512.5584716796875
316046.01491448446,-649.6400146484375,-1223.64599609375,-1095.6668701171875,-1168.9222412109375,-1064.8944091796875,-661.2492065429688,-1333.847900390625,-1518.23583984375
316046.0189144845,-649.0504760742188,-1222.1651611328125,-1094.35986328125,-1167.6087646484375,-1064.3968505859375,-661.5164794921875,-1332.2821044921875,-1517.0443115234375
316046.0229144845,-643.968017578125,-1216.2274169921875,-1088.6094970703125,-1161.7554931640625,-1059.40234375,-657.2958984375,-1326.200439453125,-1511.281494140625
316046.0269144845,-640.1605834960938,-1212.7431640625,-1085.1092529296875,-1158.21533203125,-1055.5513916015625,-653.1571655273438,-1322.7657470703125,-1507.6353759765625
316046.03091448447,-644.3602294921875,-1218.1783447265625,-1090.3001708984375,-1163.4810791015625,-1059.6771240234375,-656.1552734375,-1328.3447265625,-1512.703369140625
316046.0349144845,-650.076171875,-1224.026611328125,-1096.0555419921875,-1169.37841796875,-1065.4085693359375,-661.7738037109375,-1334.194091796875,-1518.4981689453125
316046.0389144845,-649.9987182617188,-1223.04248046875,-1095.2197265625,-1168.5545654296875,-1065.4365234375,-662.630126953125,-1333.0699462890625,-1517.7208251953125
316046.0429144845,-644.3632202148438,-1216.4971923828125,-1088.86279296875,-1162.11767578125,-1059.8524169921875,-657.9263916015625,-1326.2703857421875,-1511.259521484375
316046.04691448447,-640.2999877929688,-1212.8546142578125,-1085.190673828125,-1158.375732421875,-1055.838623046875,-653.6093139648438,-1322.5943603515625,-1507.4439697265625
316046.0509144845,-644.4326782226562,-1218.3272705078125,-1090.4215087890625,-1163.7174072265625,-1059.976806640625,-656.5799560546875,-1328.1534423828125,-1512.5833740234375
316046.0549144845,-649.7454223632812,-1223.7269287109375,-1095.752197265625,-1169.1416015625,-1065.2451171875,-661.768798828125,-1333.568115234375,-1517.931640625
316046.0589144845,-649.1519165039062,-1222.021240234375,-1094.2359619140625,-1167.559326171875,-1064.543701171875,-661.9696655273438,-1331.7979736328125,-1516.44189453125
316046.0629144845,-643.8041381835938,-1215.898193359375,-1088.248779296875,-1161.5081787109375,-1059.3138427734375,-657.4547729492188,-1325.5155029296875,-1510.547607421875
316046.0669144845,-640.4393310546875,-1213.0419921875,-1085.3370361328125,-1158.5469970703125,-1056.0010986328125,-653.7896728515625,-1322.710205078125,-1507.639892578125
316046.0709144845,-644.6909790039062,-1218.657470703125,-1090.69677734375,-1164.0062255859375,-1060.2391357421875,-656.8032836914062,-1328.526123046875,-1513.008544921875
316046.0749144845,-649.9332885742188,-1224.0196533203125,-1095.97509765625,-1169.380859375,-1065.43603515625,-661.9041748046875,-1333.9078369140625,-1518.38427734375
316046.0789144845,-649.10791015625,-1222.0552978515625,-1094.2294921875,-1167.514404296875,-1064.4921875,-661.93017578125,-1331.8519287109375,-1516.5897216796875
316046.0829144845,-643.5813598632812,-1215.4835205078125,-1087.896484375,-1161.0675048828125,-1058.877685546875,-657.1904296875,-1325.166259765625,-1510.143310546875
316046.0869144845,-640.22900390625,-1212.6732177734375,-1085.0118408203125,-1158.162353515625,-1055.6043701171875,-653.43896484375,-1322.4874267578125,-1507.3046875
316046.0909144845,-644.7264404296875,-1218.745849609375,-1090.7872314453125,-1164.068115234375,-1060.2261962890625,-656.6419067382812,-1328.8878173828125,-1513.2938232421875
316046.0949144845,-650.475830078125,-1224.7271728515625,-1096.64208984375,-1170.0673828125,-1066.0054931640625,-662.2454223632812,-1334.91748046875,-1519.342041015625
316046.0989144845,-649.7399291992188,-1223.0,-1095.0877685546875,-1168.49609375,-1065.2625732421875,-662.3463134765625,-1333.0460205078125,-1517.86572265625
316046.1029144845,-644.1248779296875,-1216.4986572265625,-1088.7498779296875,-1162.085205078125,-1059.6771240234375,-657.5357055664062,-1326.4083251953125,-1511.5252685546875
316046.1069144845,-640.2984619140625,-1212.93603515625,-1085.1607666015625,-1158.47705078125,-1055.7547607421875,-653.3740234375,-1322.901123046875,-1507.7373046875
316046.1109144845,-644.3927001953125,-1218.2528076171875,-1090.22265625,-1163.6654052734375,-1059.7705078125,-656.2697143554688,-1328.29931640625,-1512.659912109375
316046.1149144845,-650.03515625,-1224.0806884765625,-1095.93115234375,-1169.5567626953125,-1065.5263671875,-661.90869140625,-1334.0511474609375,-1518.4322509765625
316046.1189144845,-649.1953735351562,-1222.2606201171875,-1094.2684326171875,-1167.9169921875,-1064.7550048828125,-662.0136108398438,-1332.0552978515625,-1516.780029296875
316046.12291448447,-643.6522827148438,-1215.8302001953125,-1088.0059814453125,-1161.568115234375,-1059.2593994140625,-657.3388671875,-1325.4495849609375,-1510.455078125
316046.1269144845,-640.3009643554688,-1212.8541259765625,-1085.005859375,-1158.509521484375,-1055.8626708984375,-653.6303100585938,-1322.5528564453125,-1507.3575439453125
316046.13091448444,-644.4771118164062,-1218.30078125,-1090.2510986328125,-1163.8272705078125,-1059.928955078125,-656.4730224609375,-1328.2333984375,-1512.552978515625
316046.13491448446,-649.8688354492188,-1223.9317626953125,-1095.7822265625,-1169.3663330078125,-1065.41796875,-661.7942504882812,-1333.7593994140625,-1518.18896484375
316046.1389144845,-648.8021850585938,-1221.94580078125,-1093.9971923828125,-1167.4764404296875,-1064.4283447265625,-661.62939453125,-1331.5751953125,-1516.4178466796875
316046.1429144845,-643.54833984375,-1215.8516845703125,-1088.109375,-1161.4852294921875,-1059.22998046875,-657.1594848632812,-1325.4095458984375,-1510.5440673828125
316046.14691448445,-640.024169921875,-1212.5712890625,-1084.866455078125,-1158.2158203125,-1055.5714111328125,-653.2256469726562,-1322.233642578125,-1507.08935546875
316046.15091448446,-644.3817138671875,-1218.04248046875,-1090.2056884765625,-1163.5975341796875,-1059.7454833984375,-656.3186645507812,-1327.869140625,-1512.22021484375
316046.1549144845,-649.7374267578125,-1223.5140380859375,-1095.621337890625,-1169.0731201171875,-1065.1142578125,-661.5769653320312,-1333.3607177734375,-1517.71630859375
316046.1589144845,-649.5205688476562,-1222.4583740234375,-1094.7265625,-1168.08935546875,-1065.0263671875,-662.2493896484375,-1332.2830810546875,-1516.991455078125
316046.16291448445,-644.0084838867188,-1216.0899658203125,-1088.5784912109375,-1161.8154296875,-1059.5477294921875,-657.4971923828125,-1325.877685546875,-1510.8702392578125
316046.16691448446,-640.3988647460938,-1212.840576171875,-1085.310546875,-1158.49658203125,-1055.881591796875,-653.536376953125,-1322.6083984375,-1507.467529296875
316046.1709144845,-644.6414794921875,-1218.32373046875,-1090.5728759765625,-1163.8162841796875,-1060.0142822265625,-656.5280151367188,-1328.269287109375,-1512.659912109375
316046.1749144845,-650.0586547851562,-1223.7908935546875,-1095.964599609375,-1169.3409423828125,-1065.3594970703125,-661.7813110351562,-1333.807861328125,-1518.136962890625
316046.17891448445,-649.3232421875,-1222.1031494140625,-1094.4197998046875,-1167.7281494140625,-1064.650146484375,-661.9146728515625,-1331.997802734375,-1516.6951904296875
316046.18291448447,-644.3662109375,-1216.34228515625,-1088.8387451171875,-1162.0567626953125,-1059.7745361328125,-657.7630004882812,-1326.1500244140625,-1511.1680908203125
316046.1869144845,-640.8710327148438,-1213.311767578125,-1085.7757568359375,-1158.96923828125,-1056.3072509765625,-653.9505615234375,-1323.17333984375,-1508.030517578125
316046.1909144845,-644.9422607421875,-1218.658935546875,-1090.903076171875,-1164.152587890625,-1060.33056640625,-656.8052368164062,-1328.7254638671875,-1513.1070556640625
316046.19491448445,-650.476318359375,-1224.4368896484375,-1096.589599609375,-1169.8709716796875,-1065.985107421875,-662.3158569335938,-1334.53125,-1518.9298095703125
316046.19891448447,-650.1805419921875,-1223.3681640625,-1095.6748046875,-1168.938232421875,-1065.856689453125,-662.9078979492188,-1333.397216796875,-1518.2154541015625
316046.2029144845,-644.8648071289062,-1217.29150390625,-1089.76953125,-1162.9580078125,-1060.6358642578125,-658.4369506835938,-1327.1842041015625,-1512.3486328125
316046.2069144845,-641.100830078125,-1213.86328125,-1086.3282470703125,-1159.454345703125,-1056.7939453125,-654.3187255859375,-1323.8143310546875,-1508.740478515625
316046.21091448446,-645.3634033203125,-1219.3533935546875,-1091.589111328125,-1164.7540283203125,-1060.963623046875,-657.3583374023438,-1329.455322265625,-1513.87939453125
316046.2149144845,-650.529296875,-1224.5911865234375,-1096.77490234375,-1170.00439453125,-1066.10595703125,-662.4512329101562,-1334.6876220703125,-1519.11474609375
316046.2189144845,-649.6689453125,-1222.7706298828125,-1095.1376953125,-1168.293701171875,-1065.3055419921875,-662.4522705078125,-1332.730224609375,-1517.54296875
316046.2229144845,-644.572021484375,-1216.9193115234375,-1089.4517822265625,-1162.4998779296875,-1060.340576171875,-658.1941528320312,-1326.7535400390625,-1511.9000244140625
316046.2269144845,-641.1243286132812,-1214.0091552734375,-1086.481201171875,-1159.4718017578125,-1056.9603271484375,-654.3936767578125,-1323.8963623046875,-1508.87841796875
316046.2309144845,-645.3654174804688,-1219.584228515625,-1091.81884765625,-1164.889404296875,-1061.1734619140625,-657.4027709960938,-1329.65869140625,-1514.203125
316046.2349144845,-650.8070678710938,-1225.2646484375,-1097.365966796875,-1170.5064697265625,-1066.7374267578125,-662.8489379882812,-1335.271728515625,-1519.8995361328125
316046.2389144845,-649.9317626953125,-1223.5325927734375,-1095.7532958984375,-1168.849853515625,-1065.95263671875,-662.8654174804688,-1333.3826904296875,-1518.417724609375
316046.2429144845,-644.6874389648438,-1217.52783203125,-1089.87646484375,-1162.947021484375,-1060.792724609375,-658.4244995117188,-1327.2066650390625,-1512.6219482421875
316046.2469144845,-640.9209594726562,-1214.1290283203125,-1086.44970703125,-1159.497314453125,-1056.9097900390625,-654.2322998046875,-1323.9078369140625,-1509.083251953125
316046.2509144845,-645.6331787109375,-1220.1617431640625,-1092.2220458984375,-1165.37158203125,-1061.55908203125,-657.6701049804688,-1330.144775390625,-1514.859619140625
316046.2549144845,-651.08984375,-1225.84765625,-1097.7835693359375,-1171.113037109375,-1067.1375732421875,-663.1192016601562,-1335.767333984375,-1520.58349609375
316046.2589144845,-650.0971069335938,-1223.829833984375,-1095.93505859375,-1169.25146484375,-1066.138427734375,-663.0037841796875,-1333.6195068359375,-1518.7490234375
316046.2629144845,-644.49658203125,-1217.190673828125,-1089.497802734375,-1162.7677001953125,-1060.43603515625,-658.1836547851562,-1326.8209228515625,-1512.1937255859375
316046.2669144845,-640.7396240234375,-1213.7159423828125,-1085.986083984375,-1159.2540283203125,-1056.548095703125,-654.0579833984375,-1323.34130859375,-1508.4332275390625
316046.2709144845,-645.5117797851562,-1219.758056640625,-1091.807861328125,-1165.1732177734375,-1061.244384765625,-657.5971069335938,-1329.6072998046875,-1514.1806640625
316046.27491448453,-650.875,-1225.30712890625,-1097.24951171875,-1170.67236328125,-1066.6500244140625,-662.8479614257812,-1335.1697998046875,-1519.7352294921875
316046.2789144845,-649.9552612304688,-1223.3707275390625,-1095.4879150390625,-1168.893310546875,-1065.7457275390625,-662.8424682617188,-1333.0035400390625,-1517.9605712890625
316046.2829144845,-644.6180419921875,-1217.126708984375,-1089.42578125,-1162.7806396484375,-1060.3909912109375,-658.2920532226562,-1326.5587158203125,-1511.8680419921875
316046.2869144845,-640.9229736328125,-1213.8267822265625,-1086.10595703125,-1159.42578125,-1056.612060546875,-654.1629028320312,-1323.40625,-1508.4527587890625
316046.29091448453,-645.3084716796875,-1219.5167236328125,-1091.5831298828125,-1164.94287109375,-1060.967041015625,-657.350341796875,-1329.37744140625,-1513.92041015625
316046.2949144845,-650.7426147460938,-1225.1043701171875,-1097.0997314453125,-1170.5224609375,-1066.502197265625,-662.79248046875,-1334.9779052734375,-1519.5748291015625
316046.2989144845,-649.591552734375,-1222.904052734375,-1095.072265625,-1168.431640625,-1065.3355712890625,-662.4866943359375,-1332.642333984375,-1517.5709228515625
316046.3029144845,-644.2922973632812,-1216.6685791015625,-1089.048095703125,-1162.2965087890625,-1060.015380859375,-657.9273681640625,-1326.3138427734375,-1511.521240234375
316046.30691448454,-640.9579467773438,-1213.722412109375,-1086.1094970703125,-1159.3209228515625,-1056.578125,-654.1314086914062,-1323.592041015625,-1508.51171875
316046.3109144845,-645.3284301757812,-1219.390869140625,-1091.549560546875,-1164.8280029296875,-1060.920654296875,-657.2698974609375,-1329.509765625,-1513.932373046875
316046.3149144845,-650.6991577148438,-1224.8675537109375,-1096.9412841796875,-1170.2806396484375,-1066.34423828125,-662.6386108398438,-1334.9334716796875,-1519.3974609375
316046.3189144845,-649.5305786132812,-1222.5693359375,-1094.844970703125,-1168.111328125,-1065.0748291015625,-662.350830078125,-1332.5064697265625,-1517.2696533203125
316046.32291448454,-643.8826293945312,-1215.9736328125,-1088.443115234375,-1161.5821533203125,-1059.3828125,-657.4872436523438,-1325.744873046875,-1510.7978515625
316046.32691448455,-640.5112915039062,-1213.097412109375,-1085.50390625,-1158.550537109375,-1055.978515625,-653.6682739257812,-1322.8865966796875,-1507.7747802734375
316046.3309144845,-645.1375732421875,-1219.14111328125,-1091.2763671875,-1164.404296875,-1060.6358642578125,-657.0730590820312,-1329.068115234375,-1513.5736083984375
316046.3349144845,-650.3184814453125,-1224.4598388671875,-1096.51513671875,-1169.757080078125,-1065.8956298828125,-662.2039794921875,-1334.33251953125,-1518.923828125
316046.33891448454,-649.6474609375,-1222.91357421875,-1095.146240234375,-1168.3717041015625,-1065.3565673828125,-662.4392700195312,-1332.752197265625,-1517.69384765625
316046.34291448456,-644.3952026367188,-1216.900390625,-1089.304931640625,-1162.4774169921875,-1060.1976318359375,-657.9923095703125,-1326.715087890625,-1511.89599609375
316046.3469144845,-640.9644165039062,-1213.8697509765625,-1086.2333984375,-1159.368896484375,-1056.6634521484375,-654.1553955078125,-1323.762451171875,-1508.66552734375
316046.35091448453,-645.1725463867188,-1219.3719482421875,-1091.4967041015625,-1164.7066650390625,-1060.82421875,-657.1669921875,-1329.3729248046875,-1513.891357421875
316046.35491448455,-650.4168701171875,-1224.5892333984375,-1096.68798828125,-1169.9779052734375,-1066.007080078125,-662.2904052734375,-1334.59130859375,-1519.1097412109375
316046.35891448456,-649.1488647460938,-1222.13671875,-1094.4923095703125,-1167.710693359375,-1064.66455078125,-661.9461669921875,-1331.972900390625,-1516.7926025390625
316046.3629144845,-643.7102661132812,-1215.8931884765625,-1088.41259765625,-1161.5096435546875,-1059.3118896484375,-657.3578491210938,-1325.572021484375,-1510.702392578125
316046.36691448453,-640.970458984375,-1213.6824951171875,-1086.150390625,-1159.197509765625,-1056.5621337890625,-654.1778564453125,-1323.4371337890625,-1508.3707275390625
316046.37091448455,-645.9674072265625,-1220.1077880859375,-1092.281494140625,-1165.4384765625,-1061.5655517578125,-657.8504028320312,-1330.100830078125,-1514.624267578125
316046.37491448456,-651.317626953125,-1225.705810546875,-1097.7486572265625,-1170.984130859375,-1067.03515625,-663.13671875,-1335.6663818359375,-1520.3077392578125
316046.3789144845,-649.8917846679688,-1223.1883544921875,-1095.449951171875,-1168.6199951171875,-1065.5858154296875,-662.640625,-1332.987060546875,-1517.9676513671875
316046.38291448454,-644.47412109375,-1216.85986328125,-1089.3218994140625,-1162.4005126953125,-1060.158203125,-658.00927734375,-1326.5797119140625,-1511.802490234375
316046.38691448455,-641.1502685546875,-1213.88525390625,-1086.3162841796875,-1159.3619384765625,-1056.6949462890625,-654.2208251953125,-1323.719482421875,-1508.655029296875
316046.39091448457,-645.3019409179688,-1219.18505859375,-1091.397705078125,-1164.50927734375,-1060.686279296875,-657.157958984375,-1329.181640625,-1513.613037109375
316046.3949144845,-650.2659912109375,-1224.2254638671875,-1096.3592529296875,-1169.587158203125,-1065.6478271484375,-662.092529296875,-1334.2125244140625,-1518.68701171875
316046.39891448454,-649.1808471679688,-1222.2410888671875,-1094.5482177734375,-1167.7567138671875,-1064.6876220703125,-661.9486694335938,-1332.1651611328125,-1517.02392578125
316046.40291448456,-643.6847534179688,-1215.8162841796875,-1088.32666015625,-1161.4986572265625,-1059.199951171875,-657.243896484375,-1325.6309814453125,-1510.743408203125
316046.40691448457,-640.5542602539062,-1213.162353515625,-1085.6239013671875,-1158.810302734375,-1056.051025390625,-653.7002563476562,-1323.0135498046875,-1507.9237060546875
316046.4109144845,-645.421875,-1219.48486328125,-1091.6810302734375,-1164.928466796875,-1060.9910888671875,-657.3908081054688,-1329.5582275390625,-1514.0802001953125
316046.41491448454,-650.6881713867188,-1224.844482421875,-1096.9417724609375,-1170.277099609375,-1066.290771484375,-662.566650390625,-1335.0234375,-1519.5194091796875
316046.41891448456,-649.5875244140625,-1222.730224609375,-1095.0018310546875,-1168.32421875,-1065.187744140625,-662.3043823242188,-1332.9095458984375,-1517.6793212890625
316046.4229144846,-644.2058715820312,-1216.4866943359375,-1088.9456787109375,-1162.2095947265625,-1059.8309326171875,-657.7620239257812,-1326.53125,-1511.5982666015625
316046.42691448453,-641.1792602539062,-1214.000732421875,-1086.4136962890625,-1159.605224609375,-1056.784912109375,-654.2843017578125,-1324.150634765625,-1508.998779296875
316046.43091448455,-645.6226806640625,-1219.76806640625,-1091.94580078125,-1165.186279296875,-1061.1754150390625,-657.4512329101562,-1330.144775390625,-1514.5548095703125
316046.43491448456,-650.72412109375,-1224.939453125,-1097.033203125,-1170.3935546875,-1066.2528076171875,-662.46875,-1335.336669921875,-1519.783203125
316046.4389144846,-649.4521484375,-1222.7037353515625,-1094.9669189453125,-1168.2852783203125,-1064.994384765625,-662.0220947265625,-1333.0489501953125,-1517.8482666015625
316046.44291448453,-644.3931884765625,-1216.7884521484375,-1089.2349853515625,-1162.4783935546875,-1059.975830078125,-657.7794799804688,-1326.9638671875,-1512.078857421875
316046.44691448455,-641.4060668945312,-1214.2889404296875,-1086.718017578125,-1159.9169921875,-1056.9508056640625,-654.3796997070312,-1324.5087890625,-1509.4049072265625
316046.45091448457,-645.3124389648438,-1219.4407958984375,-1091.632568359375,-1164.9154052734375,-1060.7667236328125,-657.0645751953125,-1329.8570556640625,-1514.2845458984375
316046.4549144845,-650.6342163085938,-1224.7890625,-1096.8843994140625,-1170.252685546875,-1066.0885009765625,-662.3548583984375,-1335.1533203125,-1519.61279296875
316046.45891448454,-649.7264404296875,-1222.815673828125,-1095.1217041015625,-1168.4166259765625,-1065.168701171875,-662.3538208007812,-1333.072021484375,-1517.8067626953125
316046.46291448455,-644.2752685546875,-1216.4876708984375,-1088.9786376953125,-1162.2086181640625,-1059.715087890625,-657.6825561523438,-1326.6346435546875,-1511.604736328125
316046.46691448457,-641.0059204101562,-1213.8272705078125,-1086.2083740234375,-1159.3873291015625,-1056.47021484375,-653.9480590820312,-1323.9622802734375,-1508.828369140625
316046.4709144845,-645.7081298828125,-1219.9478759765625,-1092.0377197265625,-1165.297119140625,-1061.2298583984375,-657.457275390625,-1330.2447509765625,-1514.7271728515625
316046.47491448454,-651.1173095703125,-1225.4285888671875,-1097.44091796875,-1170.7742919921875,-1066.6614990234375,-662.8394165039062,-1335.7218017578125,-1520.2408447265625
316046.4789144845,-649.71142578125,-1222.903076171875,-1095.1422119140625,-1168.41259765625,-1065.22265625,-662.36181640625,-1333.052978515625,-1517.8931884765625
316046.4829144845,-644.1279296875,-1216.3773193359375,-1088.798828125,-1162.001220703125,-1059.6146240234375,-657.5861206054688,-1326.3563232421875,-1511.479248046875
316046.4869144845,-640.819580078125,-1213.6004638671875,-1085.964599609375,-1159.1041259765625,-1056.2718505859375,-653.7921752929688,-1323.66845703125,-1508.5740966796875
316046.49091448454,-645.7431030273438,-1219.6556396484375,-1091.8348388671875,-1165.0693359375,-1061.054443359375,-657.436767578125,-1329.9434814453125,-1514.33349609375
316046.4949144845,-650.970458984375,-1224.7191162109375,-1096.9173583984375,-1170.273681640625,-1066.1673583984375,-662.6486206054688,-1335.037841796875,-1519.3504638671875
316046.4989144845,-649.58056640625,-1222.3155517578125,-1094.7220458984375,-1168.00146484375,-1064.824462890625,-662.2299194335938,-1332.5513916015625,-1517.1417236328125
316046.50291448453,-644.0394897460938,-1216.028564453125,-1088.6099853515625,-1161.8134765625,-1059.390380859375,-657.4882202148438,-1326.2064208984375,-1511.089599609375
316046.50691448455,-641.2551879882812,-1213.8258056640625,-1086.3193359375,-1159.55078125,-1056.613037109375,-654.2343139648438,-1324.1181640625,-1508.8094482421875
316046.5109144845,-645.6591796875,-1219.7606201171875,-1091.9522705078125,-1165.2996826171875,-1061.1888427734375,-657.5756225585938,-1330.164306640625,-1514.5458984375
316046.5149144845,-650.907470703125,-1225.28466796875,-1097.33642578125,-1170.7578125,-1066.6375732421875,-662.9228515625,-1335.5704345703125,-1520.1224365234375
316046.51891448454,-649.64501953125,-1223.00244140625,-1095.2376708984375,-1168.658935546875,-1065.450927734375,-662.6265869140625,-1333.0625,-1518.0145263671875
316046.52291448455,-644.1119384765625,-1216.589111328125,-1089.002197265625,-1162.37646484375,-1059.9454345703125,-657.8834228515625,-1326.5582275390625,-1511.734619140625
316046.52691448457,-641.165771484375,-1214.067138671875,-1086.4561767578125,-1159.781494140625,-1056.873291015625,-654.4231567382812,-1324.197021484375,-1509.05224609375
316046.5309144845,-645.5767211914062,-1219.6412353515625,-1091.8553466796875,-1165.2581787109375,-1061.1259765625,-657.55615234375,-1330.0394287109375,-1514.386474609375
316046.53491448454,-650.217529296875,-1224.3839111328125,-1096.527587890625,-1170.0323486328125,-1065.8287353515625,-662.1924438476562,-1334.8045654296875,-1519.24853515625
316046.53891448455,-649.515625,-1222.7171630859375,-1095.015380859375,-1168.445068359375,-1065.1422119140625,-662.3253784179688,-1332.99951171875,-1517.8387451171875
316046.5429144845,-644.0909423828125,-1216.3778076171875,-1088.8702392578125,-1162.173583984375,-1059.6571044921875,-657.6276245117188,-1326.5367431640625,-1511.6246337890625
316046.5469144845,-640.7960815429688,-1213.474609375,-1085.900146484375,-1159.1160888671875,-1056.1744384765625,-653.7791748046875,-1323.6884765625,-1508.49169921875
316046.55091448454,-645.6502075195312,-1219.6756591796875,-1091.79736328125,-1165.091796875,-1060.9945068359375,-657.3862915039062,-1330.06787109375,-1514.4478759765625
316046.55491448456,-650.7840576171875,-1224.9215087890625,-1096.9422607421875,-1170.30517578125,-1066.160400390625,-662.4512329101562,-1335.2867431640625,-1519.7796630859375
316046.5589144845,-649.2557983398438,-1222.4044189453125,-1094.610107421875,-1167.903564453125,-1064.6690673828125,-661.8087768554688,-1332.63037109375,-1517.510986328125
316046.56291448453,-643.7341918945312,-1216.1439208984375,-1088.5115966796875,-1161.62158203125,-1059.2904052734375,-657.134521484375,-1326.177490234375,-1511.390380859375
316046.56691448455,-640.5282592773438,-1213.4066162109375,-1085.71826171875,-1158.7608642578125,-1055.9990234375,-653.3980102539062,-1323.53515625,-1508.4732666015625
316046.57091448456,-645.3494262695312,-1219.4288330078125,-1091.523193359375,-1164.671142578125,-1060.7392578125,-657.005615234375,-1329.7476806640625,-1514.2091064453125
316046.5749144845,-650.3384399414062,-1224.5357666015625,-1096.5626220703125,-1169.800048828125,-1065.87109375,-662.1334838867188,-1334.7921142578125,-1519.35498046875
316046.57891448453,-649.1318969726562,-1222.450439453125,-1094.6580810546875,-1167.7821044921875,-1064.7869873046875,-661.8751831054688,-1332.5738525390625,-1517.578369140625
316046.58291448455,-643.8131713867188,-1216.2904052734375,-1088.69287109375,-1161.7330322265625,-1059.490234375,-657.2958984375,-1326.318359375,-1511.6171875
316046.58691448456,-640.4418334960938,-1213.3726806640625,-1085.7352294921875,-1158.7109375,-1056.031005859375,-653.4334716796875,-1323.526123046875,-1508.4776611328125
316046.5909144845,-645.454345703125,-1219.625732421875,-1091.75390625,-1164.83056640625,-1061.011474609375,-657.2783813476562,-1329.89697265625,-1514.39501953125
316046.59491448454,-650.5028076171875,-1224.767578125,-1096.7999267578125,-1169.96142578125,-1066.126953125,-662.3853149414062,-1334.8690185546875,-1519.5184326171875
316046.59891448455,-649.25927734375,-1222.513427734375,-1094.7301025390625,-1167.8331298828125,-1064.910400390625,-662.0455932617188,-1332.4779052734375,-1517.4715576171875
316046.60291448457,-644.0139770507812,-1216.439208984375,-1088.8167724609375,-1161.8843994140625,-1059.713623046875,-657.587646484375,-1326.3123779296875,-1511.496826171875
316046.6069144845,-641.1942749023438,-1214.18359375,-1086.4881591796875,-1159.55517578125,-1056.872802734375,-654.2738037109375,-1324.1771240234375,-1509.085693359375
316046.61091448454,-645.9699096679688,-1220.209716796875,-1092.278076171875,-1165.4610595703125,-1061.593017578125,-657.8544311523438,-1330.3621826171875,-1514.8565673828125
316046.61491448455,-650.9349365234375,-1225.1583251953125,-1097.1680908203125,-1170.4739990234375,-1066.57763671875,-662.85791015625,-1335.3016357421875,-1519.863037109375
316046.6189144845,-649.1758422851562,-1222.2530517578125,-1094.4942626953125,-1167.7591552734375,-1064.7255859375,-661.9566650390625,-1332.3310546875,-1517.1912841796875
316046.6229144845,-643.33056640625,-1215.4844970703125,-1087.9195556640625,-1161.10546875,-1058.8253173828125,-656.8577270507812,-1325.5054931640625,-1510.5980224609375
316046.62691448454,-640.65966796875,-1213.36474609375,-1085.752197265625,-1158.8702392578125,-1056.103515625,-653.644287109375,-1323.537109375,-1508.36474609375
316046.6309144845,-645.5677490234375,-1219.6611328125,-1091.804931640625,-1164.9664306640625,-1061.0384521484375,-657.329345703125,-1330.046875,-1514.4874267578125
316046.6349144845,-650.862548828125,-1225.0628662109375,-1097.1146240234375,-1170.3565673828125,-1066.4287109375,-662.632080078125,-1335.4185791015625,-1519.988525390625
316046.63891448453,-649.4546508789062,-1222.6927490234375,-1094.9344482421875,-1168.2108154296875,-1065.09521484375,-662.14599609375,-1332.9185791015625,-1517.8917236328125
316046.64291448455,-644.0175170898438,-1216.460205078125,-1088.8563232421875,-1162.07373046875,-1059.673583984375,-657.3917846679688,-1326.611083984375,-1511.8380126953125
316046.6469144845,-640.8270263671875,-1213.83984375,-1086.159423828125,-1159.2869873046875,-1056.4227294921875,-653.6697998046875,-1324.1165771484375,-1509.0537109375
316046.6509144845,-645.7081298828125,-1220.0528564453125,-1092.131591796875,-1165.39453125,-1061.3258056640625,-657.3963012695312,-1330.521484375,-1515.044921875
316046.65491448453,-651.0324096679688,-1225.4580078125,-1097.46484375,-1170.8206787109375,-1066.741943359375,-662.781005859375,-1335.9161376953125,-1520.55908203125
316046.65891448455,-649.5790405273438,-1223.0224609375,-1095.2176513671875,-1168.4781494140625,-1065.339599609375,-662.243408203125,-1333.376708984375,-1518.351806640625
316046.6629144845,-643.773681640625,-1216.30029296875,-1088.678466796875,-1161.807373046875,-1059.490234375,-657.1914672851562,-1326.5491943359375,-1511.701171875
316046.6669144845,-640.658203125,-1213.623046875,-1085.9610595703125,-1159.067626953125,-1056.266357421875,-653.5843505859375,-1323.9202880859375,-1508.7584228515625
316046.67091448454,-645.3743896484375,-1219.6217041015625,-1091.7030029296875,-1164.9169921875,-1060.945556640625,-657.1370239257812,-1330.0244140625,-1514.46044921875
316046.67491448455,-650.5133056640625,-1224.8675537109375,-1096.8448486328125,-1170.2037353515625,-1066.1728515625,-662.306396484375,-1335.2471923828125,-1519.8211669921875
316046.6789144845,-649.1254272460938,-1222.50439453125,-1094.6910400390625,-1167.9959716796875,-1064.8939208984375,-661.9141845703125,-1332.6917724609375,-1517.6494140625
316046.6829144845,-643.5048828125,-1215.974609375,-1088.3626708984375,-1161.5430908203125,-1059.27587890625,-657.10302734375,-1325.960693359375,-1511.151611328125
316046.68691448454,-640.670654296875,-1213.5989990234375,-1085.985107421875,-1159.12109375,-1056.354736328125,-653.750732421875,-1323.720458984375,-1508.599609375
316046.69091448456,-645.50927734375,-1219.7530517578125,-1091.88134765625,-1165.09326171875,-1061.2059326171875,-657.4642333984375,-1330.02587890625,-1514.4793701171875
316046.6949144845,-650.2000732421875,-1224.5078125,-1096.5316162109375,-1169.8115234375,-1065.99755859375,-662.2499389648438,-1334.693115234375,-1519.2535400390625
316046.6989144845,-648.5863647460938,-1221.8214111328125,-1094.0361328125,-1167.2711181640625,-1064.3778076171875,-661.5440063476562,-1331.910888671875,-1516.7740478515625
316046.70291448454,-643.1676635742188,-1215.578369140625,-1087.947998046875,-1161.115478515625,-1058.9671630859375,-656.8582153320312,-1325.51953125,-1510.679931640625
316046.70691448456,-640.5368041992188,-1213.47607421875,-1085.7777099609375,-1158.9117431640625,-1056.2523193359375,-653.6483154296875,-1323.507568359375,-1508.404296875
316046.7109144845,-645.1995239257812,-1219.4302978515625,-1091.502197265625,-1164.6741943359375,-1060.9381103515625,-657.2089233398438,-1329.57470703125,-1514.07275390625
316046.71491448453,-650.1685791015625,-1224.326904296875,-1096.3712158203125,-1169.6231689453125,-1065.878662109375,-662.23095703125,-1334.3858642578125,-1518.98876953125
316046.71891448455,-648.4269409179688,-1221.4532470703125,-1093.747802734375,-1166.9498291015625,-1064.027587890625,-661.3646240234375,-1331.40576171875,-1516.3438720703125
316046.72291448456,-642.7974853515625,-1215.078369140625,-1087.537353515625,-1160.683349609375,-1058.4520263671875,-656.4760131835938,-1324.982421875,-1510.193359375
316046.7269144845,-640.27001953125,-1213.1588134765625,-1085.5509033203125,-1158.682373046875,-1055.8861083984375,-653.4010009765625,-1323.259765625,-1508.19189453125
316046.73091448453,-645.2584838867188,-1219.4588623046875,-1091.580078125,-1164.802001953125,-1060.82763671875,-657.114013671875,-1329.8370361328125,-1514.321044921875
316046.73491448455,-650.5327758789062,-1224.8800048828125,-1096.9033203125,-1170.252685546875,-1066.244384765625,-662.4337768554688,-1335.295166015625,-1519.9000244140625
316046.73891448457,-649.3302612304688,-1222.744140625,-1094.9149169921875,-1168.2373046875,-1065.102783203125,-662.157470703125,-1333.0474853515625,-1518.0531005859375
316046.7429144845,-643.6942749023438,-1216.329345703125,-1088.6514892578125,-1161.890380859375,-1059.4927978515625,-657.2619018554688,-1326.564208984375,-1511.822021484375
316046.74691448454,-641.0263671875,-1214.2100830078125,-1086.484619140625,-1159.7236328125,-1056.7493896484375,-654.0050048828125,-1324.6082763671875,-1509.5748291015625
316046.75091448455,-645.7046508789062,-1220.164794921875,-1092.22607421875,-1165.52099609375,-1061.375732421875,-657.4652099609375,-1330.802734375,-1515.3316650390625
316046.7549144845,-650.4658203125,-1224.909912109375,-1096.936767578125,-1170.3035888671875,-1066.1644287109375,-662.2703857421875,-1335.5279541015625,-1520.1463623046875
316046.7589144845,-649.0029907226562,-1222.50634765625,-1094.715087890625,-1168.00244140625,-1064.801513671875,-661.7293090820312,-1332.9715576171875,-1517.985107421875
316046.76291448454,-643.5563354492188,-1216.3857421875,-1088.726318359375,-1161.9088134765625,-1059.5037841796875,-657.0950317382812,-1326.7125244140625,-1512.017333984375
316046.76691448456,-640.9879150390625,-1214.37939453125,-1086.6505126953125,-1159.78955078125,-1056.8743896484375,-653.9700317382812,-1324.8250732421875,-1509.819091796875
316046.7709144845,-645.76708984375,-1220.3741455078125,-1092.4019775390625,-1165.6588134765625,-1061.5736083984375,-657.5371704101562,-1330.99267578125,-1515.5216064453125
316046.77491448453,-650.8760375976562,-1225.412109375,-1097.4049072265625,-1170.728759765625,-1066.6939697265625,-662.7105712890625,-1335.9796142578125,-1520.593017578125
316046.7789144845,-649.3842163085938,-1222.9520263671875,-1095.147705078125,-1168.4276123046875,-1065.2725830078125,-662.12353515625,-1333.41015625,-1518.436279296875
316046.7829144845,-644.2243041992188,-1217.061767578125,-1089.4322509765625,-1162.6297607421875,-1060.1837158203125,-657.695068359375,-1327.471435546875,-1512.772216796875
316046.7869144845,-641.3726196289062,-1214.7969970703125,-1087.119140625,-1160.3140869140625,-1057.259521484375,-654.2647705078125,-1325.359619140625,-1510.36474609375
316046.7909144845,-646.5089721679688,-1221.415771484375,-1093.424560546875,-1166.742431640625,-1062.5203857421875,-658.2576293945312,-1332.11474609375,-1516.7930908203125
316046.7949144845,-651.650390625,-1226.70703125,-1098.60400390625,-1172.0032958984375,-1067.806640625,-663.428955078125,-1337.4229736328125,-1522.2421875
316046.7989144845,-650.3109741210938,-1224.388916015625,-1096.470703125,-1169.8724365234375,-1066.5340576171875,-663.0128173828125,-1335.0048828125,-1520.17236328125
316046.8029144845,-645.0357055664062,-1218.2852783203125,-1090.5264892578125,-1163.8902587890625,-1061.287841796875,-658.4779052734375,-1328.7713623046875,-1514.18017578125
316046.8069144845,-641.8497314453125,-1215.5174560546875,-1087.7381591796875,-1161.049560546875,-1057.9100341796875,-654.64501953125,-1326.135009765625,-1511.18408203125
316046.8109144845,-646.4075927734375,-1221.06298828125,-1093.118408203125,-1166.5001220703125,-1062.2430419921875,-658.0068359375,-1331.8489990234375,-1516.3443603515625
316046.8149144845,-651.2576904296875,-1225.750732421875,-1097.7806396484375,-1171.2489013671875,-1067.002685546875,-662.910400390625,-1336.568115234375,-1521.069580078125
316046.8189144845,-649.8682861328125,-1223.2413330078125,-1095.4864501953125,-1168.8883056640625,-1065.54638671875,-662.3988037109375,-1333.9517822265625,-1518.803955078125
316046.8229144845,-644.0419921875,-1216.533203125,-1088.951171875,-1162.257080078125,-1059.68115234375,-657.3338623046875,-1327.04931640625,-1512.147216796875
316046.8269144845,-641.3701171875,-1214.4073486328125,-1086.7799072265625,-1160.07177734375,-1056.9517822265625,-654.0984497070312,-1324.98193359375,-1509.8236083984375
316046.83091448445,-645.9993896484375,-1220.3016357421875,-1092.432861328125,-1165.7987060546875,-1061.51806640625,-657.4977416992188,-1331.0975341796875,-1515.4920654296875
316046.83491448447,-650.85302734375,-1225.1202392578125,-1097.2125244140625,-1170.673828125,-1066.4002685546875,-662.416259765625,-1335.9146728515625,-1520.41015625
316046.8389144845,-650.0916137695312,-1223.431640625,-1095.704345703125,-1169.1041259765625,-1065.7576904296875,-662.6171264648438,-1334.0537109375,-1518.953369140625
316046.8429144845,-644.6530151367188,-1217.2945556640625,-1089.715087890625,-1163.0469970703125,-1060.4320068359375,-657.9628295898438,-1327.7777099609375,-1512.97607421875
316046.84691448446,-641.6698608398438,-1214.8265380859375,-1087.2110595703125,-1160.4979248046875,-1057.353515625,-654.3947143554688,-1325.4171142578125,-1510.2857666015625
316046.8509144845,-646.5934448242188,-1220.9166259765625,-1093.0804443359375,-1166.3677978515625,-1062.205078125,-658.1781616210938,-1331.599609375,-1516.044677734375
316046.8549144845,-651.3576049804688,-1225.7127685546875,-1097.7906494140625,-1171.1549072265625,-1067.087646484375,-663.1251831054688,-1336.2763671875,-1520.9017333984375
316046.8589144845,-649.7474365234375,-1223.2218017578125,-1095.447509765625,-1168.7698974609375,-1065.6063232421875,-662.4946899414062,-1333.591552734375,-1518.66259765625
316046.86291448446,-644.1298828125,-1216.782958984375,-1089.16357421875,-1162.4219970703125,-1059.9808349609375,-657.5646362304688,-1327.0447998046875,-1512.3675537109375
316046.8669144845,-641.6688842773438,-1214.8515625,-1087.196044921875,-1160.4580078125,-1057.3939208984375,-654.4571533203125,-1325.3216552734375,-1510.293212890625
316046.8709144845,-646.84521484375,-1221.3018798828125,-1093.381591796875,-1166.7125244140625,-1062.5283203125,-658.4094848632812,-1331.996826171875,-1516.5447998046875
316046.8749144845,-651.5390014648438,-1225.9366455078125,-1097.9864501953125,-1171.40869140625,-1067.25048828125,-663.1966552734375,-1336.61962890625,-1521.2794189453125
316046.87891448446,-649.8313598632812,-1223.25732421875,-1095.4774169921875,-1168.8787841796875,-1065.5958251953125,-662.3738403320312,-1333.8992919921875,-1518.8748779296875
316046.8829144845,-644.4306640625,-1217.149169921875,-1089.49072265625,-1162.884521484375,-1060.28955078125,-657.7295532226562,-1327.67626953125,-1512.97216796875
316046.8869144845,-641.4930419921875,-1214.757568359375,-1087.05419921875,-1160.4395751953125,-1057.26806640625,-654.21630859375,-1325.3526611328125,-1510.3931884765625
316046.8909144845,-646.2437133789062,-1220.6158447265625,-1092.712158203125,-1166.1614990234375,-1061.87939453125,-657.7350463867188,-1331.44482421875,-1515.979248046875
316046.89491448447,-650.907470703125,-1225.13623046875,-1097.2120361328125,-1170.727783203125,-1066.526611328125,-662.55419921875,-1335.9456787109375,-1520.5245361328125
316046.8989144845,-649.2512817382812,-1222.4439697265625,-1094.7310791015625,-1168.206298828125,-1064.8824462890625,-661.8582153320312,-1333.117919921875,-1518.0240478515625
316046.9029144845,-643.4654541015625,-1215.82421875,-1088.30419921875,-1161.7254638671875,-1059.103515625,-656.822265625,-1326.3548583984375,-1511.5052490234375
316046.90691448445,-640.9189453125,-1213.7529296875,-1086.1849365234375,-1159.541748046875,-1056.38720703125,-653.622802734375,-1324.3809814453125,-1509.1661376953125
316046.91091448447,-645.9344482421875,-1219.907958984375,-1092.1121826171875,-1165.4990234375,-1061.291748046875,-657.4817504882812,-1330.6663818359375,-1514.9754638671875
316046.9149144845,-650.540283203125,-1224.387939453125,-1096.5335693359375,-1170.0023193359375,-1065.8870849609375,-662.21044921875,-1335.0089111328125,-1519.43896484375
316046.9189144845,-648.6697998046875,-1221.522705078125,-1093.8607177734375,-1167.2825927734375,-1064.069580078125,-661.3206787109375,-1331.94091796875,-1516.7816162109375
316046.92291448446,-643.0782470703125,-1215.0743408203125,-1087.61572265625,-1160.944580078125,-1058.443115234375,-656.4005737304688,-1325.4635009765625,-1510.49462890625
316046.9269144845,-640.638671875,-1213.1864013671875,-1085.67236328125,-1158.9342041015625,-1055.8980712890625,-653.3445434570312,-1323.723388671875,-1508.4052734375
316046.93091448443,-646.13427734375,-1219.9539794921875,-1092.1895751953125,-1165.54345703125,-1061.3922119140625,-657.6725463867188,-1330.6568603515625,-1514.9505615234375
316046.93491448445,-650.6436767578125,-1224.477294921875,-1096.6400146484375,-1170.057861328125,-1066.02001953125,-662.3953247070312,-1335.0748291015625,-1519.5478515625
316046.93891448446,-648.729736328125,-1221.5101318359375,-1093.8797607421875,-1167.2410888671875,-1064.1060791015625,-661.4075927734375,-1331.9503173828125,-1516.7821044921875
316046.9429144845,-643.09521484375,-1215.014404296875,-1087.59423828125,-1160.8861083984375,-1058.468017578125,-656.509521484375,-1325.3505859375,-1510.3817138671875
316046.94691448443,-640.9039916992188,-1213.4390869140625,-1085.964599609375,-1159.2359619140625,-1056.246337890625,-653.7467041015625,-1323.892822265625,-1508.6055908203125
316046.95091448445,-645.8674926757812,-1219.736083984375,-1092.0037841796875,-1165.3465576171875,-1061.248291015625,-657.6221313476562,-1330.28076171875,-1514.6593017578125
316046.95491448446,-650.066162109375,-1223.7403564453125,-1095.9791259765625,-1169.393310546875,-1065.406982421875,-661.9611206054688,-1334.2110595703125,-1518.6650390625
316046.9589144845,-648.31103515625,-1220.7193603515625,-1093.1943359375,-1166.5430908203125,-1063.529541015625,-661.144775390625,-1330.970703125,-1515.73095703125
316046.96291448444,-642.7454833984375,-1214.281982421875,-1086.9532470703125,-1160.2276611328125,-1057.9425048828125,-656.3636474609375,-1324.4293212890625,-1509.366455078125
316046.96691448445,-640.4513549804688,-1212.7431640625,-1085.318115234375,-1158.5885009765625,-1055.6693115234375,-653.4254760742188,-1323.1083984375,-1507.7628173828125
316046.97091448447,-645.72412109375,-1219.4583740234375,-1091.7369384765625,-1165.1273193359375,-1061.0274658203125,-657.500732421875,-1330.0494384765625,-1514.3470458984375
316046.9749144845,-650.8030395507812,-1224.906494140625,-1097.0262451171875,-1170.5189208984375,-1066.49267578125,-662.8099365234375,-1335.431640625,-1519.998046875
316046.97891448444,-649.3307495117188,-1222.5648193359375,-1094.8289794921875,-1168.2952880859375,-1065.188232421875,-662.3003540039062,-1332.902099609375,-1517.8841552734375
316046.98291448446,-643.7042236328125,-1216.1639404296875,-1088.593994140625,-1161.9847412109375,-1059.6011962890625,-657.3773193359375,-1326.4407958984375,-1511.6181640625
316046.98691448447,-640.8290405273438,-1213.9088134765625,-1086.2274169921875,-1159.59375,-1056.633544921875,-653.8611450195312,-1324.302490234375,-1509.1556396484375
316046.9909144845,-645.8055419921875,-1219.843017578125,-1091.956298828125,-1165.4539794921875,-1061.3408203125,-657.6226196289062,-1330.3841552734375,-1514.7371826171875
316046.99491448444,-650.4508666992188,-1224.2265625,-1096.3193359375,-1169.9268798828125,-1065.901123046875,-662.4777221679688,-1334.6431884765625,-1519.064208984375
316046.99891448446,-648.687255859375,-1221.4117431640625,-1093.700439453125,-1167.213134765625,-1064.1195068359375,-661.6224365234375,-1331.692626953125,-1516.4498291015625
316047.0029144845,-642.5307006835938,-1214.35791015625,-1086.870361328125,-1160.2696533203125,-1057.8919677734375,-656.1597900390625,-1324.5352783203125,-1509.50390625
316047.0069144845,-640.1610717773438,-1212.579833984375,-1085.0423583984375,-1158.4271240234375,-1055.4095458984375,-653.1337280273438,-1322.881591796875,-1507.532470703125
316047.01091448445,-645.3359375,-1218.9561767578125,-1091.1759033203125,-1164.63671875,-1060.5059814453125,-657.093505859375,-1329.42041015625,-1513.630615234375
316047.01491448446,-650.27099609375,-1223.8262939453125,-1095.989501953125,-1169.5302734375,-1065.4974365234375,-662.1165161132812,-1334.239501953125,-1518.588623046875
316047.0189144845,-648.580322265625,-1221.1395263671875,-1093.49609375,-1166.9813232421875,-1063.8477783203125,-661.3021850585938,-1331.4656982421875,-1516.173095703125
316047.0229144845,-642.6800537109375,-1214.4842529296875,-1087.0032958984375,-1160.423583984375,-1057.9969482421875,-656.1298217773438,-1324.681640625,-1509.6572265625
316047.02691448445,-639.75439453125,-1212.1591796875,-1084.6121826171875,-1157.9854736328125,-1054.9833984375,-652.6026000976562,-1322.4095458984375,-1507.078857421875
316047.03091448447,-645.0636596679688,-1218.7613525390625,-1090.93310546875,-1164.3548583984375,-1060.2606201171875,-656.767822265625,-1329.172607421875,-1513.440673828125
316047.0349144845,-649.8853149414062,-1223.552490234375,-1095.6378173828125,-1169.1405029296875,-1065.13671875,-661.7223510742188,-1333.916748046875,-1518.3553466796875
316047.03891448444,-648.1452026367188,-1220.7008056640625,-1093.035888671875,-1166.47021484375,-1063.3746337890625,-660.8934936523438,-1330.985107421875,-1515.7264404296875
316047.04291448445,-642.0086059570312,-1213.5574951171875,-1086.1199951171875,-1159.4158935546875,-1057.132080078125,-655.5547485351562,-1323.66748046875,-1508.565185546875
316047.04691448447,-639.5965576171875,-1211.674560546875,-1084.1734619140625,-1157.4364013671875,-1054.5687255859375,-652.4977416992188,-1321.845947265625,-1506.410888671875
316047.0509144845,-645.0751342773438,-1218.5120849609375,-1090.7572021484375,-1164.0855712890625,-1060.1287841796875,-656.865234375,-1328.8668212890625,-1513.0679931640625
316047.05491448444,-649.7828979492188,-1223.3272705078125,-1095.5054931640625,-1168.8572998046875,-1065.0313720703125,-661.7353515625,-1333.701416015625,-1518.1015625
316047.05891448446,-648.3360595703125,-1220.9991455078125,-1093.3626708984375,-1166.6500244140625,-1063.7293701171875,-661.1807861328125,-1331.3148193359375,-1516.090087890625
316047.0629144845,-642.7854614257812,-1214.6317138671875,-1087.20458984375,-1160.3880615234375,-1058.184814453125,-656.316162109375,-1324.875,-1509.838134765625
316047.0669144845,-639.7694091796875,-1212.082275390625,-1084.6121826171875,-1157.751220703125,-1054.9718017578125,-652.6265869140625,-1322.39306640625,-1506.9779052734375
316047.07091448444,-645.0311889648438,-1218.38916015625,-1090.7037353515625,-1163.9202880859375,-1060.058837890625,-656.7443237304688,-1328.783935546875,-1512.920654296875
316047.07491448446,-649.7333984375,-1223.0,-1095.265625,-1168.6124267578125,-1064.83447265625,-661.6329345703125,-1333.3602294921875,-1517.6318359375
316047.0789144844,-648.2186279296875,-1220.56689453125,-1093.02392578125,-1166.3162841796875,-1063.4376220703125,-661.0723266601562,-1330.899658203125,-1515.526123046875
316047.08291448443,-642.10400390625,-1213.5810546875,-1086.21484375,-1159.4407958984375,-1057.2081298828125,-655.5912475585938,-1323.8663330078125,-1508.697021484375
316047.08691448445,-639.51806640625,-1211.5791015625,-1084.156494140625,-1157.343017578125,-1054.454833984375,-652.2883911132812,-1322.0462646484375,-1506.5447998046875
316047.09091448446,-645.0386962890625,-1218.4256591796875,-1090.7213134765625,-1163.99267578125,-1060.00537109375,-656.7168579101562,-1328.9912109375,-1513.1319580078125
316047.0949144844,-649.6549682617188,-1222.9825439453125,-1095.2176513671875,-1168.5125732421875,-1064.6866455078125,-661.4945068359375,-1333.4476318359375,-1517.7607421875
316047.09891448444,-647.7255249023438,-1219.9224853515625,-1092.3724365234375,-1165.5614013671875,-1062.713623046875,-660.4513549804688,-1330.2437744140625,-1514.901123046875
316047.10291448445,-641.9151611328125,-1213.0869140625,-1085.7452392578125,-1158.90869140625,-1056.7684326171875,-655.4019165039062,-1323.1854248046875,-1508.0255126953125
316047.10691448447,-639.3517456054688,-1210.9576416015625,-1083.614990234375,-1156.7529296875,-1053.9796142578125,-652.178955078125,-1321.1375732421875,-1505.5994873046875
316047.1109144844,-644.246826171875,-1217.0078125,-1089.4248046875,-1162.6082763671875,-1058.7498779296875,-655.8465576171875,-1327.4119873046875,-1511.4208984375
316047.11491448444,-648.6348266601562,-1221.203369140625,-1093.5899658203125,-1166.8388671875,-1063.13427734375,-660.4243774414062,-1331.5086669921875,-1515.6190185546875
316047.11891448445,-646.3950805664062,-1217.9285888671875,-1090.5208740234375,-1163.6834716796875,-1060.93603515625,-659.2008666992188,-1328.051025390625,-1512.5399169921875
316047.12291448447,-640.669189453125,-1211.543212890625,-1084.275390625,-1157.3475341796875,-1055.3145751953125,-654.1788940429688,-1321.585693359375,-1506.31591796875
316047.1269144845,-639.2802734375,-1211.1259765625,-1083.7103271484375,-1156.818359375,-1054.091552734375,-652.1215209960938,-1321.3438720703125,-1505.8388671875
316047.13091448444,-644.4351806640625,-1217.6387939453125,-1089.9569091796875,-1163.1702880859375,-1059.306884765625,-656.1337890625,-1328.04150390625,-1512.1947021484375
316047.13491448446,-649.162353515625,-1222.0732421875,-1094.38037109375,-1167.6846923828125,-1063.9801025390625,-661.0093994140625,-1332.4215087890625,-1516.647216796875
316047.1389144845,-647.0855102539062,-1218.5989990234375,-1091.225341796875,-1164.4058837890625,-1061.677001953125,-659.8223266601562,-1328.8408203125,-1513.263427734375
316047.1429144845,-641.2666625976562,-1211.8619384765625,-1084.6971435546875,-1157.7791748046875,-1055.71728515625,-654.6395263671875,-1322.042236328125,-1506.603759765625
316047.14691448445,-638.7147216796875,-1209.9783935546875,-1082.7401123046875,-1155.8106689453125,-1053.0528564453125,-651.403564453125,-1320.3096923828125,-1504.5423583984375
316047.15091448446,-644.1918334960938,-1216.7864990234375,-1089.2889404296875,-1162.4698486328125,-1058.5560302734375,-655.72265625,-1327.2950439453125,-1511.174560546875
316047.1549144845,-648.881591796875,-1221.457275390625,-1093.898193359375,-1167.1611328125,-1063.3621826171875,-660.5707397460938,-1331.953857421875,-1515.9742431640625
316047.1589144845,-647.2728881835938,-1218.724853515625,-1091.40771484375,-1164.6121826171875,-1061.71142578125,-659.8528442382812,-1329.193603515625,-1513.480224609375
316047.16291448445,-641.60791015625,-1212.1317138671875,-1085.0108642578125,-1158.171875,-1055.95654296875,-654.8828125,-1322.4569091796875,-1506.971923828125
316047.16691448446,-638.9065551757812,-1210.1337890625,-1082.906494140625,-1156.0465087890625,-1053.229736328125,-651.5714721679688,-1320.465087890625,-1504.708251953125
316047.1709144845,-644.1458740234375,-1216.521728515625,-1089.0576171875,-1162.3184814453125,-1058.37060546875,-655.6651611328125,-1326.976318359375,-1510.807373046875
316047.1749144845,-648.794189453125,-1221.0784912109375,-1093.5634765625,-1166.9178466796875,-1063.0714111328125,-660.4413452148438,-1331.524658203125,-1515.4801025390625
316047.17891448445,-647.4357299804688,-1218.8868408203125,-1091.5191650390625,-1164.885498046875,-1061.8768310546875,-660.0126953125,-1329.261962890625,-1513.6156005859375
316047.18291448447,-642.3038330078125,-1213.547607421875,-1086.2069091796875,-1159.5902099609375,-1057.1630859375,-655.59423828125,-1323.92431640625,-1508.705078125
316047.1869144845,-640.3209228515625,-1212.6312255859375,-1085.1207275390625,-1158.5020751953125,-1055.3770751953125,-652.9563598632812,-1323.1348876953125,-1507.7557373046875
316047.1909144845,-645.5807495117188,-1219.0546875,-1091.3258056640625,-1164.80908203125,-1060.5963134765625,-657.0830688476562,-1329.6876220703125,-1513.889892578125
316047.19491448445,-649.6389770507812,-1222.603271484375,-1094.92138671875,-1168.4266357421875,-1064.44677734375,-661.3536376953125,-1333.115478515625,-1517.297119140625
316047.19891448447,-647.5266723632812,-1219.195556640625,-1091.786376953125,-1165.186279296875,-1062.15966796875,-660.173095703125,-1329.5362548828125,-1513.98681640625
316047.2029144845,-641.6638793945312,-1212.5538330078125,-1085.3160400390625,-1158.660888671875,-1056.32080078125,-655.0092163085938,-1322.770263671875,-1507.468505859375
316047.2069144845,-639.3072509765625,-1211.0784912109375,-1083.6964111328125,-1157.023193359375,-1054.0335693359375,-651.9591674804688,-1321.4427490234375,-1505.8472900390625
316047.21091448446,-644.9872436523438,-1218.0849609375,-1090.402587890625,-1163.7918701171875,-1059.7620849609375,-656.5614624023438,-1328.592529296875,-1512.598876953125
316047.2149144845,-649.398681640625,-1222.3724365234375,-1094.648681640625,-1168.1268310546875,-1064.2354736328125,-661.1847534179688,-1332.7841796875,-1516.962890625
316047.2189144845,-647.2529296875,-1219.176025390625,-1091.675048828125,-1165.0703125,-1062.0906982421875,-659.9842529296875,-1329.3753662109375,-1513.997802734375
316047.2229144845,-641.2716674804688,-1212.215087890625,-1084.950439453125,-1158.203369140625,-1055.9705810546875,-654.689453125,-1322.2921142578125,-1507.0447998046875
316047.22691448446,-638.5553588867188,-1209.765625,-1082.5313720703125,-1155.69580078125,-1052.906982421875,-651.2651977539062,-1319.9200439453125,-1504.215576171875
316047.2309144845,-643.6257934570312,-1215.835693359375,-1088.412109375,-1161.6290283203125,-1057.798095703125,-655.2090454101562,-1326.1070556640625,-1509.948486328125
316047.2349144845,-648.4454345703125,-1220.6458740234375,-1093.144775390625,-1166.440673828125,-1062.7615966796875,-660.261474609375,-1330.86767578125,-1514.9005126953125
316047.2389144845,-646.6049194335938,-1217.9739990234375,-1090.6278076171875,-1163.8697509765625,-1061.097412109375,-659.3662109375,-1328.1654052734375,-1512.573974609375
316047.24291448446,-641.1312866210938,-1211.914306640625,-1084.6990966796875,-1157.8675537109375,-1055.729248046875,-654.5435791015625,-1322.0997314453125,-1506.7451171875
316047.2469144845,-639.0159912109375,-1210.5264892578125,-1083.228759765625,-1156.417236328125,-1053.5594482421875,-651.71484375,-1320.8671875,-1505.21826171875
316047.2509144845,-644.3067626953125,-1217.0872802734375,-1089.50927734375,-1162.881591796875,-1058.845703125,-655.8884887695312,-1327.535400390625,-1511.57421875
316047.25491448445,-648.6737670898438,-1221.3978271484375,-1093.73291015625,-1167.2176513671875,-1063.2987060546875,-660.475830078125,-1331.7764892578125,-1515.9847412109375
316047.25891448447,-646.7348022460938,-1218.4461669921875,-1090.964599609375,-1164.4033203125,-1061.398681640625,-659.4935913085938,-1328.6829833984375,-1513.224853515625
316047.2629144845,-640.6626586914062,-1211.64208984375,-1084.3199462890625,-1157.689208984375,-1055.3594970703125,-654.1159057617188,-1321.801513671875,-1506.53173828125
316047.2669144845,-638.6942749023438,-1210.3131103515625,-1082.91552734375,-1156.265869140625,-1053.28369140625,-651.4525756835938,-1320.5260009765625,-1504.9219970703125
316047.27091448446,-644.246826171875,-1217.020751953125,-1089.40478515625,-1162.8350830078125,-1058.7642822265625,-655.8685302734375,-1327.382080078125,-1511.3748779296875
316047.2749144845,-648.7112426757812,-1221.4332275390625,-1093.7528076171875,-1167.2470703125,-1063.32470703125,-660.5227661132812,-1331.8330078125,-1515.9456787109375
316047.2789144844,-647.1929321289062,-1219.119140625,-1091.5760498046875,-1165.0343017578125,-1061.9742431640625,-659.892822265625,-1329.48388671875,-1513.9947509765625
316047.28291448444,-641.510498046875,-1212.6373291015625,-1085.2861328125,-1158.669921875,-1056.288818359375,-654.9387817382812,-1322.837646484375,-1507.597412109375
316047.28691448446,-638.9830322265625,-1210.6114501953125,-1083.2218017578125,-1156.599609375,-1053.5615234375,-651.7193603515625,-1320.9146728515625,-1505.26123046875
316047.2909144844,-644.6090087890625,-1217.5528564453125,-1089.9039306640625,-1163.358154296875,-1059.2384033203125,-656.21875,-1328.0565185546875,-1512.0213623046875
316047.29491448443,-648.8641357421875,-1221.7939453125,-1094.0831298828125,-1167.579345703125,-1063.6453857421875,-660.6831665039062,-1332.2176513671875,-1516.411865234375
316047.29891448445,-647.0885620117188,-1219.174560546875,-1091.614013671875,-1165.0313720703125,-1062.0296630859375,-659.8652954101562,-1329.4464111328125,-1514.0802001953125
316047.30291448446,-641.5464477539062,-1213.1024169921875,-1085.683837890625,-1159.0191650390625,-1056.6669921875,-655.0576782226562,-1323.3272705078125,-1508.2733154296875
316047.3069144844,-639.6229858398438,-1212.1026611328125,-1084.5771484375,-1157.8350830078125,-1054.8509521484375,-652.4427490234375,-1322.491455078125,-1507.158203125
316047.31091448443,-645.2894897460938,-1219.0736083984375,-1091.2813720703125,-1164.6131591796875,-1060.54443359375,-656.984130859375,-1329.6427001953125,-1513.936279296875
316047.31491448445,-649.6530151367188,-1223.30419921875,-1095.4644775390625,-1168.88427734375,-1064.986328125,-661.552490234375,-1333.8828125,-1518.3133544921875
316047.31891448447,-647.5756225585938,-1220.3206787109375,-1092.6552734375,-1166.0115966796875,-1063.0399169921875,-660.4193725585938,-1330.8177490234375,-1515.6240234375
316047.3229144844,-641.9791259765625,-1214.0750732421875,-1086.5506591796875,-1159.867431640625,-1057.5643310546875,-655.5857543945312,-1324.4378662109375,-1509.513427734375
316047.32691448444,-640.1825561523438,-1213.096435546875,-1085.46044921875,-1158.81787109375,-1055.8231201171875,-653.1516723632812,-1323.4556884765625,-1508.3023681640625
316047.3309144844,-645.5272827148438,-1219.6851806640625,-1091.826904296875,-1165.306640625,-1061.179443359375,-657.3652954101562,-1330.2342529296875,-1514.733642578125
316047.3349144844,-649.6380004882812,-1223.5850830078125,-1095.7132568359375,-1169.2958984375,-1065.3345947265625,-661.7617797851562,-1334.0726318359375,-1518.675048828125
316047.3389144844,-647.8124389648438,-1220.639404296875,-1092.993408203125,-1166.4556884765625,-1063.5015869140625,-660.8870239257812,-1330.9361572265625,-1515.8677978515625
316047.34291448444,-642.1394653320312,-1214.346923828125,-1086.8558349609375,-1160.212646484375,-1057.93701171875,-655.9514770507812,-1324.560302734375,-1509.7232666015625
316047.3469144844,-640.1560668945312,-1213.161865234375,-1085.597900390625,-1159.0001220703125,-1055.9620361328125,-653.3335571289062,-1323.507080078125,-1508.351806640625
316047.3509144844,-645.8015747070312,-1219.98388671875,-1092.1685791015625,-1165.71728515625,-1061.571533203125,-657.866943359375,-1330.5035400390625,-1514.9754638671875
316047.35491448443,-650.1500854492188,-1224.1070556640625,-1096.2603759765625,-1169.907958984375,-1065.943603515625,-662.4452514648438,-1334.5533447265625,-1519.1456298828125
316047.35891448444,-647.9024047851562,-1220.78173828125,-1093.1138916015625,-1166.6915283203125,-1063.66845703125,-661.142822265625,-1331.017578125,-1515.960693359375
316047.3629144844,-641.9826049804688,-1214.088134765625,-1086.5765380859375,-1160.078369140625,-1057.7196044921875,-655.8875122070312,-1324.2310791015625,-1509.35498046875
316047.3669144844,-640.2025146484375,-1213.0789794921875,-1085.4659423828125,-1158.97314453125,-1055.8846435546875,-653.3505249023438,-1323.4072265625,-1508.19091796875
316047.37091448443,-646.0433959960938,-1220.11376953125,-1092.2435302734375,-1165.901123046875,-1061.6839599609375,-658.0057983398438,-1330.6343994140625,-1515.0579833984375
316047.37491448445,-649.895263671875,-1223.700439453125,-1095.7852783203125,-1169.46435546875,-1065.5074462890625,-662.0625610351562,-1334.0906982421875,-1518.6595458984375
316047.3789144844,-647.759521484375,-1220.446044921875,-1092.7406005859375,-1166.2828369140625,-1063.313232421875,-660.8190307617188,-1330.69482421875,-1515.5885009765625
316047.3829144844,-642.4772338867188,-1214.4522705078125,-1086.935302734375,-1160.4190673828125,-1058.101318359375,-656.2587280273438,-1324.6827392578125,-1509.731201171875
316047.38691448444,-639.9782104492188,-1212.8001708984375,-1085.1827392578125,-1158.6199951171875,-1055.6273193359375,-653.0447998046875,-1323.212890625,-1507.9071044921875
316047.39091448445,-644.9212646484375,-1219.0281982421875,-1091.135498046875,-1164.6751708984375,-1060.611328125,-656.8447265625,-1329.626220703125,-1513.9627685546875
316047.3949144844,-649.528076171875,-1223.593505859375,-1095.65087890625,-1169.305908203125,-1065.3885498046875,-661.7413330078125,-1334.1201171875,-1518.7034912109375
316047.3989144844,-647.8699340820312,-1221.052490234375,-1093.272705078125,-1166.8228759765625,-1063.84375,-661.0418701171875,-1331.457275390625,-1516.4163818359375
316047.40291448444,-642.0225830078125,-1214.433349609375,-1086.828857421875,-1160.3001708984375,-1057.9415283203125,-655.8040771484375,-1324.7816162109375,-1509.9105224609375
316047.40691448445,-640.2994384765625,-1213.4461669921875,-1085.7781982421875,-1159.2655029296875,-1056.157470703125,-653.3820190429688,-1323.9083251953125,-1508.72900390625
316047.4109144844,-645.6456909179688,-1219.958984375,-1092.0771484375,-1165.71875,-1061.503173828125,-657.6975708007812,-1330.5555419921875,-1515.0179443359375
316047.4149144844,-650.346923828125,-1224.38134765625,-1096.49169921875,-1170.231201171875,-1066.1973876953125,-662.62060546875,-1334.9539794921875,-1519.5184326171875
316047.41891448444,-648.35400390625,-1221.36083984375,-1093.6663818359375,-1167.3260498046875,-1064.219482421875,-661.488037109375,-1331.9058837890625,-1516.734130859375
316047.42291448446,-642.3803100585938,-1214.6571044921875,-1087.1126708984375,-1160.6778564453125,-1058.2657470703125,-656.2162475585938,-1325.0614013671875,-1510.0904541015625
316047.4269144845,-640.0366821289062,-1213.06298828125,-1085.428955078125,-1158.9466552734375,-1055.8516845703125,-653.1137084960938,-1323.58203125,-1508.2694091796875
316047.43091448443,-645.6422119140625,-1219.8475341796875,-1091.9822998046875,-1165.58740234375,-1061.4466552734375,-657.6510620117188,-1330.51806640625,-1514.817138671875
316047.43491448445,-650.1260986328125,-1224.130615234375,-1096.225830078125,-1169.9234619140625,-1066.0025634765625,-662.4337768554688,-1334.6741943359375,-1519.1846923828125
316047.43891448446,-647.9013671875,-1220.91064453125,-1093.216796875,-1166.888916015625,-1063.8702392578125,-661.1807861328125,-1331.23046875,-1516.1700439453125
316047.4429144845,-642.2793579101562,-1214.563232421875,-1087.0322265625,-1160.596923828125,-1058.26220703125,-656.2117309570312,-1324.74609375,-1509.9305419921875
316047.44691448443,-640.33642578125,-1213.3502197265625,-1085.7576904296875,-1159.263916015625,-1056.2138671875,-653.5513916015625,-1323.7080078125,-1508.5291748046875
316047.45091448445,-645.8355102539062,-1220.0328369140625,-1092.2076416015625,-1165.811767578125,-1061.6705322265625,-657.9019165039062,-1330.617431640625,-1515.04443359375
316047.45491448446,-649.8798217773438,-1223.7119140625,-1095.924560546875,-1169.5706787109375,-1065.63134765625,-662.113037109375,-1334.31201171875,-1518.803955078125
316047.4589144845,-647.7890014648438,-1220.4964599609375,-1092.9739990234375,-1166.4757080078125,-1063.511474609375,-660.9439697265625,-1331.003173828125,-1515.7763671875
316047.46291448444,-642.2998657226562,-1214.328369140625,-1086.9383544921875,-1160.3116455078125,-1058.02587890625,-656.035888671875,-1324.755615234375,-1509.752197265625
316047.46691448445,-640.4498291015625,-1213.193359375,-1085.6982421875,-1159.0535888671875,-1056.01953125,-653.3580322265625,-1323.8033447265625,-1508.4107666015625
316047.47091448447,-645.8605346679688,-1219.8504638671875,-1092.0811767578125,-1165.49853515625,-1061.474609375,-657.6995239257812,-1330.5894775390625,-1514.8421630859375
316047.4749144845,-650.216552734375,-1223.9627685546875,-1096.16943359375,-1169.6651611328125,-1065.878173828125,-662.3238525390625,-1334.6011962890625,-1519.0272216796875
316047.47891448444,-647.846435546875,-1220.554443359375,-1092.9554443359375,-1166.4207763671875,-1063.528076171875,-660.87451171875,-1331.050048828125,-1515.8248291015625
316047.48291448446,-642.3233642578125,-1214.347412109375,-1086.9068603515625,-1160.3580322265625,-1058.0523681640625,-655.982421875,-1324.775146484375,-1509.74267578125
316047.48691448447,-640.5797119140625,-1213.4991455078125,-1085.9385986328125,-1159.423828125,-1056.3787841796875,-653.5383911132812,-1324.066162109375,-1508.7139892578125
316047.4909144845,-646.2267456054688,-1220.3460693359375,-1092.5548095703125,-1166.2109375,-1062.03271484375,-658.1137084960938,-1331.115478515625,-1515.38916015625
316047.49491448444,-650.50927734375,-1224.4603271484375,-1096.6585693359375,-1170.3760986328125,-1066.3931884765625,-662.6785888671875,-1335.205322265625,-1519.644287109375
316047.49891448446,-648.5693359375,-1221.480224609375,-1093.88427734375,-1167.5772705078125,-1064.4697265625,-661.6728515625,-1332.0682373046875,-1516.89794921875
316047.5029144845,-642.8494262695312,-1215.0662841796875,-1087.5982666015625,-1161.1868896484375,-1058.71435546875,-656.5859375,-1325.5250244140625,-1510.5755615234375
316047.50691448443,-641.2037353515625,-1214.1785888671875,-1086.567138671875,-1160.1082763671875,-1056.9443359375,-654.1259155273438,-1324.8026123046875,-1509.4619140625
316047.51091448445,-646.8267211914062,-1220.953125,-1093.10986328125,-1166.783935546875,-1062.5528564453125,-658.7452392578125,-1331.68359375,-1515.9871826171875
316047.51491448446,-651.1787719726562,-1225.0413818359375,-1097.215087890625,-1170.9586181640625,-1066.937744140625,-663.4049682617188,-1335.7064208984375,-1520.160888671875
316047.5189144845,-649.1273803710938,-1221.910888671875,-1094.306396484375,-1167.9525146484375,-1064.8809814453125,-662.2824096679688,-1332.427001953125,-1517.2347412109375
316047.52291448443,-643.3405151367188,-1215.4315185546875,-1087.989501953125,-1161.5286865234375,-1059.114013671875,-657.1155395507812,-1325.86669921875,-1510.8912353515625
316047.52691448445,-641.5779418945312,-1214.55078125,-1086.9873046875,-1160.521484375,-1057.345947265625,-654.549560546875,-1325.2552490234375,-1509.87109375
316047.5309144844,-647.4866943359375,-1221.7509765625,-1093.9122314453125,-1167.5458984375,-1063.2767333984375,-659.32275390625,-1332.6697998046875,-1516.9473876953125
316047.5349144844,-651.75732421875,-1225.7227783203125,-1097.8985595703125,-1171.609130859375,-1067.5142822265625,-663.8391723632812,-1336.523193359375,-1521.001708984375
316047.5389144844,-649.0359497070312,-1221.6650390625,-1094.1156005859375,-1167.7171630859375,-1064.5916748046875,-662.006103515625,-1332.2940673828125,-1517.02392578125
316047.5429144844,-642.9063720703125,-1214.701171875,-1087.3599853515625,-1160.8602294921875,-1058.3826904296875,-656.4510498046875,-1325.2841796875,-1510.10791015625
316047.5469144844,-641.5384521484375,-1214.22900390625,-1086.7589111328125,-1160.2352294921875,-1057.044677734375,-654.3641967773438,-1324.9305419921875,-1509.46435546875
316047.5509144844,-647.578125,-1221.589111328125,-1093.8162841796875,-1167.4019775390625,-1063.1982421875,-659.40966796875,-1332.3685302734375,-1516.626220703125
316047.5549144844,-652.093017578125,-1226.0166015625,-1098.1943359375,-1171.8414306640625,-1067.8555908203125,-664.116943359375,-1336.759521484375,-1521.2210693359375
316047.5589144844,-650.6401977539062,-1223.720458984375,-1096.0889892578125,-1169.650634765625,-1066.567626953125,-663.5379028320312,-1334.4149169921875,-1519.2635498046875
316047.5629144844,-645.5432739257812,-1218.097900390625,-1090.5709228515625,-1164.0836181640625,-1061.610107421875,-659.1574096679688,-1328.68798828125,-1513.804931640625
316047.5669144844,-643.9225463867188,-1217.3050537109375,-1089.627197265625,-1163.154296875,-1059.932861328125,-656.7752685546875,-1328.0400390625,-1512.7957763671875
316047.5709144844,-649.7374267578125,-1224.2889404296875,-1096.3602294921875,-1169.972412109375,-1065.728271484375,-661.4965209960938,-1335.24072265625,-1519.56787109375
316047.5749144844,-654.0574340820312,-1228.272216796875,-1100.3990478515625,-1174.068115234375,-1070.0252685546875,-666.0623779296875,-1339.196044921875,-1523.68359375
316047.57891448436,-651.7418212890625,-1224.8050537109375,-1097.2021484375,-1170.811767578125,-1067.65771484375,-664.6594848632812,-1335.5675048828125,-1520.4071044921875
316047.5829144844,-646.0938110351562,-1218.4676513671875,-1091.01953125,-1164.5892333984375,-1062.0751953125,-659.7669067382812,-1329.0262451171875,-1514.09765625
316047.5869144844,-644.5940551757812,-1217.7916259765625,-1090.20166015625,-1163.702880859375,-1060.536376953125,-657.5291748046875,-1328.4332275390625,-1513.1195068359375
316047.5909144844,-650.16357421875,-1224.476806640625,-1096.6580810546875,-1170.2677001953125,-1066.028076171875,-662.0106201171875,-1335.28369140625,-1519.5908203125
316047.59491448436,-654.3702392578125,-1228.4600830078125,-1100.6358642578125,-1174.33544921875,-1070.295654296875,-666.510986328125,-1339.1761474609375,-1523.7010498046875
316047.5989144844,-652.2239379882812,-1225.230224609375,-1097.6397705078125,-1171.266357421875,-1068.1263427734375,-665.2744750976562,-1335.8492431640625,-1520.724853515625
316047.6029144844,-646.595458984375,-1218.979736328125,-1091.5540771484375,-1165.121337890625,-1062.5762939453125,-660.35595703125,-1329.4827880859375,-1514.6263427734375
316047.6069144844,-644.7713623046875,-1217.988037109375,-1090.4525146484375,-1164.0435791015625,-1060.69677734375,-657.771484375,-1328.632080078125,-1513.44970703125
316047.61091448436,-650.7276000976562,-1225.048828125,-1097.29345703125,-1170.9710693359375,-1066.567626953125,-662.6001586914062,-1335.90771484375,-1520.2877197265625
316047.6149144844,-654.9842529296875,-1229.0107421875,-1101.221923828125,-1174.94287109375,-1070.8121337890625,-667.08203125,-1339.7890625,-1524.2855224609375
316047.6189144844,-652.7235107421875,-1225.745849609375,-1098.1488037109375,-1171.7734375,-1068.5565185546875,-665.735595703125,-1336.4228515625,-1521.281982421875
316047.6229144844,-646.4485473632812,-1218.8692626953125,-1091.4072265625,-1164.9229736328125,-1062.3399658203125,-660.09912109375,-1329.455322265625,-1514.5728759765625
316047.62691448437,-644.7379150390625,-1217.9539794921875,-1090.3914794921875,-1163.9052734375,-1060.580322265625,-657.5921630859375,-1328.6705322265625,-1513.436279296875
316047.6309144844,-650.7251586914062,-1224.995849609375,-1097.239501953125,-1170.875732421875,-1066.5301513671875,-662.544677734375,-1335.8511962890625,-1520.2342529296875
316047.6349144844,-654.6874389648438,-1228.680419921875,-1100.9295654296875,-1174.6417236328125,-1070.6048583984375,-666.9161987304688,-1339.451904296875,-1523.966796875
316047.6389144844,-652.2029418945312,-1225.1956787109375,-1097.61328125,-1171.243896484375,-1068.1378173828125,-665.2835083007812,-1335.9146728515625,-1520.745849609375
316047.6429144844,-645.929443359375,-1218.3411865234375,-1090.857177734375,-1164.400390625,-1061.8963623046875,-659.5475463867188,-1329.0047607421875,-1514.0927734375
316047.6469144844,-644.6499633789062,-1217.9620361328125,-1090.3680419921875,-1163.9296875,-1060.673828125,-657.5161743164062,-1328.785888671875,-1513.5640869140625
316047.6509144844,-650.3274536132812,-1224.8489990234375,-1097.0172119140625,-1170.703369140625,-1066.4306640625,-662.1964721679688,-1335.8287353515625,-1520.270263671875
316047.65491448436,-654.2997436523438,-1228.4930419921875,-1100.6802978515625,-1174.4453125,-1070.3800048828125,-666.4185791015625,-1339.453857421875,-1524.0087890625
316047.6589144844,-651.833251953125,-1224.9005126953125,-1097.324951171875,-1170.9781494140625,-1067.838623046875,-664.8173828125,-1335.7398681640625,-1520.592529296875
316047.6629144844,-645.572265625,-1217.9190673828125,-1090.5050048828125,-1164.07958984375,-1061.591552734375,-659.2322998046875,-1328.5455322265625,-1513.633056640625
316047.6669144844,-643.859619140625,-1217.0137939453125,-1089.4722900390625,-1163.056396484375,-1059.8084716796875,-656.7208251953125,-1327.7481689453125,-1512.4725341796875
316047.67091448436,-649.6489868164062,-1223.936279296875,-1096.136962890625,-1169.820556640625,-1065.5908203125,-661.47705078125,-1334.8045654296875,-1519.16064453125
316047.6749144844,-653.6053466796875,-1227.559326171875,-1099.7750244140625,-1173.52001953125,-1069.533203125,-665.7106323242188,-1338.3817138671875,-1522.89013671875
316047.67891448434,-651.0048828125,-1223.895263671875,-1096.351806640625,-1170.005859375,-1066.9188232421875,-664.0239868164062,-1334.5748291015625,-1519.4564208984375
316047.68291448435,-645.1765747070312,-1217.429443359375,-1090.025390625,-1163.5980224609375,-1061.097412109375,-658.7546997070312,-1328.0484619140625,-1513.1285400390625
316047.68691448437,-643.9495239257812,-1217.1422119140625,-1089.609130859375,-1163.1673583984375,-1059.8734130859375,-656.7123413085938,-1328.010986328125,-1512.759765625
316047.6909144844,-649.6519775390625,-1224.025634765625,-1096.2498779296875,-1169.89501953125,-1065.5869140625,-661.3886108398438,-1335.166748046875,-1519.4969482421875
316047.69491448434,-653.4030151367188,-1227.3984375,-1099.6241455078125,-1173.3177490234375,-1069.29345703125,-665.4173583984375,-1338.5400390625,-1522.9276123046875
316047.69891448435,-650.8974609375,-1223.7353515625,-1096.203857421875,-1169.85546875,-1066.7164306640625,-663.8101806640625,-1334.690673828125,-1519.472900390625
316047.70291448437,-644.8992919921875,-1217.1307373046875,-1089.7440185546875,-1163.336669921875,-1060.7822265625,-658.4734497070312,-1327.9156494140625,-1513.0115966796875
316047.7069144844,-642.996826171875,-1216.08251953125,-1088.5689697265625,-1162.1451416015625,-1058.854248046875,-655.8385620117188,-1326.96533203125,-1511.733154296875
316047.71091448434,-648.4624633789062,-1222.78271484375,-1095.0003662109375,-1168.6734619140625,-1064.3963623046875,-660.3089599609375,-1333.7818603515625,-1518.2333984375
316047.71491448436,-652.3603515625,-1226.504638671875,-1098.6739501953125,-1172.3955078125,-1068.3916015625,-664.4561767578125,-1337.46142578125,-1522.11083984375
316047.7189144844,-649.893310546875,-1223.0728759765625,-1095.447021484375,-1169.0831298828125,-1066.02099609375,-662.8694458007812,-1333.99169921875,-1518.957275390625
316047.7229144844,-644.0664672851562,-1216.6456298828125,-1089.142578125,-1162.6982421875,-1060.296630859375,-657.6995239257812,-1327.3880615234375,-1512.6134033203125
316047.7269144844,-642.5571899414062,-1216.03759765625,-1088.381591796875,-1161.893798828125,-1058.790283203125,-655.4074096679688,-1326.8499755859375,-1511.79052734375
316047.73091448436,-648.0782470703125,-1222.7142333984375,-1094.779541015625,-1168.4241943359375,-1064.325927734375,-659.9182739257812,-1333.654052734375,-1518.2408447265625
316047.7349144844,-652.4937133789062,-1226.880859375,-1098.9256591796875,-1172.6717529296875,-1068.809326171875,-664.6514892578125,-1337.770263671875,-1522.4830322265625
316047.7389144844,-650.0151977539062,-1223.4136962890625,-1095.6793212890625,-1169.369384765625,-1066.3917236328125,-663.0967407226562,-1334.2010498046875,-1519.26806640625
316047.7429144844,-644.0769653320312,-1216.8948974609375,-1089.3013916015625,-1162.93701171875,-1060.5499267578125,-657.782470703125,-1327.6038818359375,-1512.8896484375
316047.74691448436,-642.8194580078125,-1216.537109375,-1088.822265625,-1162.4439697265625,-1059.3214111328125,-655.7840576171875,-1327.43896484375,-1512.32958984375
316047.7509144844,-648.644775390625,-1223.465087890625,-1095.535888671875,-1169.260498046875,-1065.1337890625,-660.63623046875,-1334.5018310546875,-1519.03173828125
316047.7549144844,-652.287353515625,-1226.7120361328125,-1098.8272705078125,-1172.5767822265625,-1068.724853515625,-664.5885620117188,-1337.6583251953125,-1522.3455810546875
316047.7589144844,-649.4761352539062,-1222.753662109375,-1095.115234375,-1168.746826171875,-1065.8507080078125,-662.7025756835938,-1333.5970458984375,-1518.5611572265625
316047.76291448437,-643.558349609375,-1216.029541015625,-1088.5789794921875,-1162.1207275390625,-1059.8359375,-657.3248291015625,-1326.8170166015625,-1511.89892578125
316047.7669144844,-641.8662109375,-1215.080810546875,-1087.5462646484375,-1161.0904541015625,-1058.015869140625,-654.7993774414062,-1326.0166015625,-1510.724365234375
316047.7709144844,-647.9453735351562,-1222.4569091796875,-1094.6546630859375,-1168.3717041015625,-1064.2174072265625,-659.904296875,-1333.49462890625,-1517.95458984375
316047.7749144844,-652.2254028320312,-1226.5596923828125,-1098.7379150390625,-1172.515869140625,-1068.60595703125,-664.4541625976562,-1337.58837890625,-1522.2681884765625
316047.77891448437,-649.9772338867188,-1223.1988525390625,-1095.611328125,-1169.260498046875,-1066.3182373046875,-663.0887451171875,-1334.1826171875,-1519.1412353515625
316047.7829144844,-644.6694946289062,-1217.1746826171875,-1089.756591796875,-1163.3302001953125,-1060.9970703125,-658.3480224609375,-1328.161376953125,-1513.2269287109375
316047.78691448434,-642.9068603515625,-1216.2493896484375,-1088.732421875,-1162.2965087890625,-1059.177001953125,-655.7825927734375,-1327.406005859375,-1512.082763671875
316047.79091448436,-648.9775390625,-1223.378662109375,-1095.6373291015625,-1169.306884765625,-1065.1612548828125,-660.7531127929688,-1334.713623046875,-1518.9832763671875
316047.7949144844,-653.2791137695312,-1227.3475341796875,-1099.6251220703125,-1173.355224609375,-1069.4718017578125,-665.3319702148438,-1338.6710205078125,-1523.0789794921875
316047.7989144844,-651.1922607421875,-1224.31298828125,-1096.763427734375,-1170.4224853515625,-1067.46484375,-664.1743774414062,-1335.4925537109375,-1520.30029296875
316047.80291448435,-645.7380981445312,-1218.3616943359375,-1090.8826904296875,-1164.46728515625,-1062.11962890625,-659.3622436523438,-1329.4039306640625,-1514.4769287109375
316047.80691448436,-644.62353515625,-1218.204345703125,-1090.5458984375,-1164.1510009765625,-1061.029541015625,-657.5126953125,-1329.279052734375,-1514.0377197265625
316047.8109144844,-650.8070678710938,-1225.56689453125,-1097.645263671875,-1171.3778076171875,-1067.267578125,-662.7025756835938,-1336.6766357421875,-1521.172607421875
316047.8149144844,-654.7284545898438,-1229.0616455078125,-1101.159912109375,-1174.9364013671875,-1071.1439208984375,-666.9321899414062,-1340.077392578125,-1524.7347412109375
316047.81891448435,-652.3433227539062,-1225.5244140625,-1097.860595703125,-1171.5321044921875,-1068.6534423828125,-665.4163818359375,-1336.460205078125,-1521.42138671875
316047.82291448436,-646.4075927734375,-1218.853271484375,-1091.3927001953125,-1164.9364013671875,-1062.6307373046875,-660.0252075195312,-1329.7601318359375,-1514.862548828125
316047.8269144844,-644.9387817382812,-1218.2158203125,-1090.6602783203125,-1164.166015625,-1061.0400390625,-657.7125244140625,-1329.2530517578125,-1513.996826171875
316047.83091448434,-650.8605346679688,-1225.2271728515625,-1097.4559326171875,-1171.0870361328125,-1066.94580078125,-662.640625,-1336.3603515625,-1520.7694091796875
316047.83491448435,-654.4611206054688,-1228.4996337890625,-1100.727294921875,-1174.4228515625,-1070.5738525390625,-666.5589599609375,-1339.56982421875,-1524.140625
316047.83891448437,-651.8147583007812,-1224.6976318359375,-1097.1611328125,-1170.7637939453125,-1067.8560791015625,-664.7813720703125,-1335.7303466796875,-1520.552490234375
316047.8429144844,-645.389892578125,-1217.578857421875,-1090.1976318359375,-1163.66943359375,-1061.3807373046875,-658.9215698242188,-1328.5411376953125,-1513.5426025390625
316047.84691448434,-643.6947631835938,-1216.7469482421875,-1089.2708740234375,-1162.6641845703125,-1059.61767578125,-656.3890991210938,-1327.95556640625,-1512.5155029296875
316047.85091448436,-649.9102783203125,-1224.1800537109375,-1096.4461669921875,-1169.98388671875,-1065.8861083984375,-661.5784301757812,-1335.572509765625,-1519.7691650390625
316047.8549144844,-653.9065551757812,-1227.9210205078125,-1100.15771484375,-1173.831787109375,-1069.9774169921875,-665.950927734375,-1339.149169921875,-1523.64208984375
316047.8589144844,-650.929443359375,-1223.8543701171875,-1096.322265625,-1169.9224853515625,-1067.009765625,-663.9225463867188,-1334.8980712890625,-1519.7891845703125
316047.86291448434,-644.420166015625,-1216.7060546875,-1089.3228759765625,-1162.819091796875,-1060.5494384765625,-658.0772705078125,-1327.5714111328125,-1512.727294921875
316047.86691448436,-642.976318359375,-1216.1923828125,-1088.6773681640625,-1162.148681640625,-1059.10009765625,-655.8185424804688,-1327.22314453125,-1511.9664306640625
316047.8709144844,-649.0045166015625,-1223.3846435546875,-1095.574951171875,-1169.16455078125,-1065.1412353515625,-660.8355712890625,-1334.5013427734375,-1518.8739013671875
316047.8749144844,-653.2321166992188,-1227.2960205078125,-1099.4842529296875,-1173.12890625,-1069.4417724609375,-665.4019165039062,-1338.356689453125,-1522.876708984375
316047.87891448435,-650.3369140625,-1223.375244140625,-1095.7891845703125,-1169.3533935546875,-1066.613037109375,-663.4589233398438,-1334.3414306640625,-1519.1737060546875
316047.88291448436,-643.8970947265625,-1216.2833251953125,-1088.854248046875,-1162.3375244140625,-1060.18017578125,-657.6370849609375,-1327.2061767578125,-1512.2047119140625
316047.8869144844,-642.868408203125,-1216.14697265625,-1088.5830078125,-1162.084228515625,-1059.0750732421875,-655.7211303710938,-1327.2696533203125,-1511.8790283203125
316047.8909144844,-649.0989379882812,-1223.528076171875,-1095.7022705078125,-1169.4093017578125,-1065.2940673828125,-660.9169921875,-1334.7935791015625,-1519.0692138671875
316047.89491448435,-653.8001708984375,-1227.828125,-1100.0438232421875,-1173.82177734375,-1069.997802734375,-665.9899291992188,-1339.0262451171875,-1523.4422607421875
316047.89891448437,-651.380615234375,-1224.2769775390625,-1096.75439453125,-1170.43603515625,-1067.548828125,-664.5106201171875,-1335.3741455078125,-1520.0699462890625
316047.9029144844,-645.1775512695312,-1217.2845458984375,-1089.9593505859375,-1163.5750732421875,-1061.2537841796875,-658.8916015625,-1328.3143310546875,-1513.137939453125
316047.9069144844,-643.968505859375,-1216.9522705078125,-1089.4742431640625,-1163.11083984375,-1059.9354248046875,-656.7987670898438,-1328.0780029296875,-1512.5255126953125
316047.91091448435,-650.6616821289062,-1224.9339599609375,-1097.1656494140625,-1170.922119140625,-1066.6834716796875,-662.4757080078125,-1336.1934814453125,-1520.354736328125
316047.91491448437,-654.5730590820312,-1228.5765380859375,-1100.8251953125,-1174.6181640625,-1070.706787109375,-666.7982788085938,-1339.7835693359375,-1524.1431884765625
316047.9189144844,-651.6693725585938,-1224.4453125,-1096.954833984375,-1170.6448974609375,-1067.6971435546875,-664.7728881835938,-1335.5679931640625,-1520.1873779296875
316047.9229144844,-645.1900634765625,-1217.2076416015625,-1089.8814697265625,-1163.4901123046875,-1061.1444091796875,-658.9041137695312,-1328.23828125,-1512.9776611328125
316047.9269144844,-643.8840942382812,-1216.833984375,-1089.3533935546875,-1162.9635009765625,-1059.7764892578125,-656.75927734375,-1327.93505859375,-1512.3135986328125
316047.9309144844,-650.2035522460938,-1224.391357421875,-1096.6256103515625,-1170.39306640625,-1066.14697265625,-662.114501953125,-1335.5360107421875,-1519.6602783203125
316047.9349144844,-653.9280395507812,-1227.7237548828125,-1099.996337890625,-1173.7808837890625,-1069.8839111328125,-666.21923828125,-1338.77294921875,-1523.1175537109375
316047.9389144844,-650.7426147460938,-1223.38720703125,-1095.9056396484375,-1169.564208984375,-1066.6650390625,-663.95556640625,-1334.26953125,-1518.9708251953125
316047.9429144844,-644.7089233398438,-1216.759521484375,-1089.3997802734375,-1162.9644775390625,-1060.6827392578125,-658.5484008789062,-1327.4893798828125,-1512.4114990234375
316047.9469144844,-643.3175659179688,-1216.4093017578125,-1088.8673095703125,-1162.448974609375,-1059.2734375,-656.3106689453125,-1327.24365234375,-1511.8115234375
316047.9509144844,-649.5575561523438,-1223.9267578125,-1096.06201171875,-1169.7490234375,-1065.5408935546875,-661.489501953125,-1334.9110107421875,-1519.1766357421875
316047.9549144844,-653.6163330078125,-1227.7337646484375,-1099.833984375,-1173.5400390625,-1069.670654296875,-665.8930053710938,-1338.677978515625,-1523.158935546875
316047.9589144844,-650.46533203125,-1223.47607421875,-1095.8177490234375,-1169.4163818359375,-1066.5361328125,-663.707275390625,-1334.24755859375,-1519.11767578125
316047.9629144844,-643.9046020507812,-1216.1510009765625,-1088.6773681640625,-1162.151611328125,-1059.910400390625,-657.716064453125,-1326.844482421875,-1511.8590087890625
316047.9669144844,-642.4607543945312,-1215.6064453125,-1088.013427734375,-1161.483642578125,-1058.32470703125,-655.3554077148438,-1326.4617919921875,-1511.0635986328125
316047.9709144844,-648.8136596679688,-1223.073486328125,-1095.24462890625,-1168.897216796875,-1064.6265869140625,-660.7046508789062,-1334.0406494140625,-1518.3212890625
316047.9749144844,-652.6185913085938,-1226.457275390625,-1098.6973876953125,-1172.342041015625,-1068.4290771484375,-664.86279296875,-1337.385498046875,-1521.8614501953125
316047.9789144844,-649.3317260742188,-1222.0982666015625,-1094.588134765625,-1168.1263427734375,-1065.1832275390625,-662.4912109375,-1332.9261474609375,-1517.768310546875
316047.9829144844,-642.8589477539062,-1215.0443115234375,-1087.687255859375,-1161.126953125,-1058.7752685546875,-656.5929565429688,-1325.8157958984375,-1510.8782958984375
316047.9869144844,-641.6588745117188,-1214.9654541015625,-1087.4443359375,-1160.9046630859375,-1057.624267578125,-654.5335693359375,-1325.9132080078125,-1510.617431640625
316047.9909144844,-648.7562255859375,-1223.388671875,-1095.56787109375,-1169.2294921875,-1064.8160400390625,-660.6122436523438,-1334.5498046875,-1518.8978271484375
316047.9949144844,-652.846435546875,-1227.15966796875,-1099.3408203125,-1173.0623779296875,-1068.9871826171875,-665.1260986328125,-1338.2713623046875,-1522.834716796875
316047.9989144844,-649.5300903320312,-1222.6043701171875,-1095.0562744140625,-1168.6190185546875,-1065.5699462890625,-662.674072265625,-1333.62451171875,-1518.482666015625
316048.0029144844,-642.3328247070312,-1214.650146484375,-1087.282470703125,-1160.7122802734375,-1058.334716796875,-656.0828247070312,-1325.5159912109375,-1510.5645751953125
316048.0069144844,-640.9993896484375,-1214.29541015625,-1086.751953125,-1160.2001953125,-1056.935302734375,-653.9305419921875,-1325.2042236328125,-1509.8656005859375
316048.0109144844,-647.7045288085938,-1222.063232421875,-1094.2454833984375,-1167.818115234375,-1063.5130615234375,-659.62353515625,-1333.0989990234375,-1517.360107421875
316048.0149144844,-651.4650268554688,-1225.315673828125,-1097.5643310546875,-1171.200439453125,-1067.2305908203125,-663.7252197265625,-1336.3463134765625,-1520.743408203125
316048.0189144844,-648.471435546875,-1221.265380859375,-1093.7587890625,-1167.26953125,-1064.3018798828125,-661.6273803710938,-1332.1591796875,-1516.9583740234375
316048.0229144844,-641.7927856445312,-1214.0341796875,-1086.66552734375,-1160.079345703125,-1057.7066650390625,-655.5462646484375,-1324.7890625,-1509.8526611328125
316048.0269144844,-640.7975463867188,-1214.14111328125,-1086.55908203125,-1160.0084228515625,-1056.7015380859375,-653.6717529296875,-1325.033447265625,-1509.687744140625
316048.0309144844,-647.5606689453125,-1222.0911865234375,-1094.2230224609375,-1167.8016357421875,-1063.4410400390625,-659.4156494140625,-1333.1319580078125,-1517.3995361328125
316048.03491448436,-651.8097534179688,-1225.9136962890625,-1098.0804443359375,-1171.6815185546875,-1067.6722412109375,-663.9410400390625,-1336.9244384765625,-1521.3958740234375
316048.0389144844,-648.6243286132812,-1221.5291748046875,-1093.980224609375,-1167.4698486328125,-1064.4542236328125,-661.5944213867188,-1332.492919921875,-1517.2987060546875
316048.0429144844,-642.265869140625,-1214.5238037109375,-1087.1470947265625,-1160.5289306640625,-1058.140869140625,-655.7835693359375,-1325.4520263671875,-1510.45166015625
316048.0469144844,-641.0533447265625,-1214.4483642578125,-1086.904296875,-1160.2991943359375,-1056.96728515625,-653.6992797851562,-1325.5279541015625,-1510.164306640625
316048.05091448437,-647.5631713867188,-1222.1142578125,-1094.27490234375,-1167.798095703125,-1063.403076171875,-659.1673583984375,-1333.34375,-1517.573486328125
316048.0549144844,-651.6213989257812,-1225.7373046875,-1097.9515380859375,-1171.45068359375,-1067.4619140625,-663.622314453125,-1336.9228515625,-1521.3619384765625
316048.0589144844,-648.3790283203125,-1221.328857421875,-1093.8427734375,-1167.148681640625,-1064.243408203125,-661.317138671875,-1332.3974609375,-1517.2166748046875
316048.0629144844,-641.7123413085938,-1213.9752197265625,-1086.689453125,-1159.8759765625,-1057.6068115234375,-655.2344970703125,-1325.0103759765625,-1510.0169677734375
316048.06691448437,-640.5272827148438,-1213.8582763671875,-1086.4151611328125,-1159.638671875,-1056.3802490234375,-653.0822143554688,-1325.1248779296875,-1509.7271728515625
316048.0709144844,-648.1826782226562,-1222.9130859375,-1095.1102294921875,-1168.5660400390625,-1064.0960693359375,-659.7803955078125,-1334.1685791015625,-1518.4766845703125
316048.0749144844,-653.2636108398438,-1227.536865234375,-1099.779541015625,-1173.3662109375,-1069.133544921875,-665.259033203125,-1338.66796875,-1523.158447265625
316048.07891448436,-650.541259765625,-1223.4801025390625,-1096.0455322265625,-1169.51171875,-1066.3243408203125,-663.4729614257812,-1334.5042724609375,-1519.3580322265625
316048.0829144844,-643.4374389648438,-1215.5264892578125,-1088.357666015625,-1161.675537109375,-1059.262451171875,-657.0430908203125,-1326.53466796875,-1511.6307373046875
316048.0869144844,-641.0993041992188,-1214.260986328125,-1086.932861328125,-1160.2347412109375,-1056.9422607421875,-653.880615234375,-1325.3916015625,-1510.1019287109375
316048.0909144844,-648.6742553710938,-1223.4127197265625,-1095.630859375,-1169.1595458984375,-1064.5721435546875,-660.3764038085938,-1334.55126953125,-1518.910400390625
316048.09491448436,-654.7084350585938,-1229.0706787109375,-1101.25732421875,-1174.841064453125,-1070.5489501953125,-666.682861328125,-1340.1602783203125,-1524.6302490234375
316048.0989144844,-651.7457885742188,-1224.7410888671875,-1097.2530517578125,-1170.6923828125,-1067.5732421875,-664.7828979492188,-1335.6854248046875,-1520.528076171875
316048.1029144844,-643.87158203125,-1215.918212890625,-1088.71240234375,-1161.956298828125,-1059.7255859375,-657.673583984375,-1326.74853515625,-1511.843994140625
316048.1069144844,-641.6298828125,-1214.651123046875,-1087.3065185546875,-1160.47802734375,-1057.368896484375,-654.464111328125,-1325.6343994140625,-1510.3017578125
316048.11091448436,-649.4002075195312,-1223.970703125,-1096.19091796875,-1169.6446533203125,-1065.1617431640625,-661.0698852539062,-1335.0318603515625,-1519.298583984375
316048.1149144844,-655.5053100585938,-1229.8709716796875,-1102.065673828125,-1175.6483154296875,-1071.38525390625,-667.5321655273438,-1340.874267578125,-1525.3671875
316048.1189144844,-652.6290893554688,-1225.748291015625,-1098.273681640625,-1171.676025390625,-1068.541015625,-665.5927124023438,-1336.7349853515625,-1521.6312255859375
316048.1229144844,-644.9202880859375,-1217.1826171875,-1089.984375,-1163.2218017578125,-1060.8980712890625,-658.600830078125,-1328.1009521484375,-1513.3167724609375
316048.12691448437,-642.0725708007812,-1215.382080078125,-1088.02197265625,-1161.27880859375,-1058.001953125,-654.8807983398438,-1326.3787841796875,-1511.2235107421875
316048.1309144844,-649.2952880859375,-1223.9697265625,-1096.2164306640625,-1169.7330322265625,-1065.1177978515625,-660.9459838867188,-1335.0384521484375,-1519.4354248046875
316048.1349144844,-654.764892578125,-1228.914794921875,-1101.203857421875,-1174.8065185546875,-1070.447509765625,-666.7223510742188,-1339.927978515625,-1524.4803466796875
316048.1389144844,-651.86669921875,-1224.6566162109375,-1097.26806640625,-1170.705810546875,-1067.53076171875,-664.8572998046875,-1335.5789794921875,-1520.4595947265625
316048.1429144844,-644.4041748046875,-1216.3818359375,-1089.2679443359375,-1162.538330078125,-1060.1866455078125,-658.105712890625,-1327.306640625,-1512.426513671875
316048.1469144844,-642.1080322265625,-1215.2421875,-1087.927490234375,-1161.2183837890625,-1057.9365234375,-654.9223022460938,-1326.2999267578125,-1511.0386962890625
316048.1509144844,-649.9312744140625,-1224.565185546875,-1096.806396484375,-1170.35009765625,-1065.749755859375,-661.5779418945312,-1335.7373046875,-1520.06494140625
316048.15491448436,-654.828369140625,-1229.1351318359375,-1101.3377685546875,-1174.9674072265625,-1070.67529296875,-666.854248046875,-1340.2218017578125,-1524.7711181640625
316048.1589144844,-651.7647705078125,-1224.724609375,-1097.257080078125,-1170.69580078125,-1067.562255859375,-664.75244140625,-1335.7138671875,-1520.6734619140625
316048.1629144844,-644.0230102539062,-1216.0220947265625,-1088.8468017578125,-1162.00732421875,-1059.7864990234375,-657.6585693359375,-1326.9573974609375,-1512.1407470703125
316048.1669144844,-641.402587890625,-1214.4873046875,-1087.16015625,-1160.2841796875,-1057.1585693359375,-654.161376953125,-1325.5059814453125,-1510.2772216796875
316048.17091448436,-648.74072265625,-1223.2972412109375,-1095.554443359375,-1168.9022216796875,-1064.519287109375,-660.4138793945312,-1334.389404296875,-1518.7034912109375
316048.1749144844,-653.8256225585938,-1228.077392578125,-1100.299072265625,-1173.745361328125,-1069.6785888671875,-665.8695068359375,-1339.14208984375,-1523.642578125
316048.17891448434,-650.9024658203125,-1223.8568115234375,-1096.417724609375,-1169.7181396484375,-1066.7554931640625,-663.9765625,-1334.797119140625,-1519.76220703125
316048.18291448435,-642.8814086914062,-1214.7506103515625,-1087.6357421875,-1160.6563720703125,-1058.5794677734375,-656.5084838867188,-1325.6783447265625,-1510.8162841796875
316048.18691448437,-640.2675170898438,-1213.0943603515625,-1085.856689453125,-1158.8857421875,-1055.8616943359375,-652.9633178710938,-1324.1435546875,-1508.81689453125
316048.1909144844,-647.3782958984375,-1221.74853515625,-1094.0955810546875,-1167.3814697265625,-1063.0059814453125,-658.9490356445312,-1332.878173828125,-1517.165771484375
316048.19491448434,-653.1561889648438,-1227.2391357421875,-1099.564208984375,-1172.95654296875,-1068.8468017578125,-665.0946655273438,-1338.289306640625,-1522.8167724609375
316048.19891448435,-650.4238891601562,-1223.2987060546875,-1095.9471435546875,-1169.218017578125,-1066.23583984375,-663.4374389648438,-1334.3084716796875,-1519.2451171875
316048.20291448437,-642.6870727539062,-1214.715087890625,-1087.6297607421875,-1160.7562255859375,-1058.593994140625,-656.3991088867188,-1325.755859375,-1510.8878173828125
316048.2069144844,-640.089111328125,-1213.0823974609375,-1085.8447265625,-1159.025634765625,-1055.9130859375,-652.890380859375,-1324.235595703125,-1508.9154052734375
316048.21091448434,-647.1304931640625,-1221.502197265625,-1093.829345703125,-1167.2745361328125,-1062.873046875,-658.860107421875,-1332.600830078125,-1516.887939453125
316048.21491448436,-652.5741577148438,-1226.4737548828125,-1098.8043212890625,-1172.3704833984375,-1068.2373046875,-664.6549682617188,-1337.4964599609375,-1521.9119873046875
316048.2189144844,-649.742431640625,-1222.138671875,-1094.8604736328125,-1168.2862548828125,-1065.2510986328125,-662.780517578125,-1333.1419677734375,-1517.8507080078125
316048.2229144844,-641.5769653320312,-1212.815185546875,-1085.9085693359375,-1159.1251220703125,-1056.9642333984375,-655.2969970703125,-1323.7958984375,-1508.6480712890625
316048.2269144844,-638.8701171875,-1211.027587890625,-1084.0015869140625,-1157.234619140625,-1054.1640625,-651.6978759765625,-1322.0997314453125,-1506.4853515625
316048.23091448436,-646.640869140625,-1220.34814453125,-1092.8695068359375,-1166.3572998046875,-1061.9942626953125,-658.3500366210938,-1331.4637451171875,-1515.45458984375
316048.2349144844,-652.4032592773438,-1225.7872314453125,-1098.292236328125,-1171.888916015625,-1067.8076171875,-664.4521484375,-1336.8634033203125,-1521.0272216796875
316048.2389144844,-649.4151611328125,-1221.4517822265625,-1094.2899169921875,-1167.7156982421875,-1064.83544921875,-662.523193359375,-1332.3895263671875,-1516.9783935546875
316048.2429144844,-641.3241577148438,-1212.4599609375,-1085.5623779296875,-1158.7293701171875,-1056.8248291015625,-655.1815795898438,-1323.267333984375,-1508.1405029296875
316048.24691448436,-638.5878295898438,-1210.80322265625,-1083.75390625,-1156.8853759765625,-1054.06005859375,-651.489501953125,-1321.761474609375,-1506.2039794921875
316048.2509144844,-645.89697265625,-1219.7926025390625,-1092.2540283203125,-1165.643798828125,-1061.4647216796875,-657.6630859375,-1330.822265625,-1514.925537109375
316048.2549144844,-651.595947265625,-1225.3431396484375,-1097.720703125,-1171.2408447265625,-1067.2974853515625,-663.7387084960938,-1336.2908935546875,-1520.681884765625
316048.2589144844,-648.989990234375,-1221.4761962890625,-1094.177490234375,-1167.514404296875,-1064.7041015625,-662.1229858398438,-1332.4205322265625,-1517.2037353515625
316048.26291448437,-640.7291259765625,-1212.2200927734375,-1085.254638671875,-1158.3072509765625,-1056.3907470703125,-654.4751586914062,-1323.201904296875,-1508.1868896484375
316048.2669144844,-638.2091674804688,-1210.7177734375,-1083.60400390625,-1156.623046875,-1053.7532958984375,-650.9364624023438,-1321.8533935546875,-1506.3663330078125
316048.2709144844,-645.9364624023438,-1220.0194091796875,-1092.4423828125,-1165.748779296875,-1061.548095703125,-657.5641479492188,-1331.220947265625,-1515.3087158203125
316048.2749144844,-651.7987670898438,-1225.466064453125,-1097.8804931640625,-1171.354248046875,-1067.4049072265625,-663.8346557617188,-1336.5546875,-1520.8482666015625
316048.2789144844,-648.6158447265625,-1220.8936767578125,-1093.6639404296875,-1167.0147705078125,-1064.185546875,-661.6728515625,-1331.8619384765625,-1516.55078125
316048.2829144844,-641.2317504882812,-1212.5338134765625,-1085.6253662109375,-1158.7808837890625,-1056.8228759765625,-654.9832153320312,-1323.4566650390625,-1508.3897705078125
316048.2869144844,-639.1044311523438,-1211.5146484375,-1084.4178466796875,-1157.560302734375,-1054.6475830078125,-651.8847045898438,-1322.591796875,-1507.102783203125
316048.2909144844,-646.3731079101562,-1220.2777099609375,-1092.7362060546875,-1166.14990234375,-1061.9052734375,-657.98681640625,-1331.5037841796875,-1515.5595703125
316048.29491448443,-651.5070190429688,-1224.96044921875,-1097.4208984375,-1170.899658203125,-1067.0072021484375,-663.4624633789062,-1336.1044921875,-1520.2987060546875
316048.2989144844,-648.654296875,-1220.80224609375,-1093.593994140625,-1166.9173583984375,-1064.18701171875,-661.6973266601562,-1331.7855224609375,-1516.3939208984375
316048.3029144844,-640.615234375,-1211.7330322265625,-1084.866455078125,-1157.9835205078125,-1056.114990234375,-654.3487548828125,-1322.7562255859375,-1507.5064697265625
316048.3069144844,-638.7686767578125,-1211.0230712890625,-1083.958740234375,-1157.05517578125,-1054.244384765625,-651.5,-1322.274658203125,-1506.55126953125
316048.31091448443,-646.2002563476562,-1220.1263427734375,-1092.5633544921875,-1165.9246826171875,-1061.7889404296875,-657.8349609375,-1331.3458251953125,-1515.345703125
316048.3149144844,-651.5899658203125,-1225.2232666015625,-1097.601806640625,-1171.0440673828125,-1067.238525390625,-663.6378173828125,-1336.2823486328125,-1520.5380859375
316048.3189144844,-648.686279296875,-1221.0106201171875,-1093.7064208984375,-1166.9483642578125,-1064.347412109375,-661.7653198242188,-1331.943359375,-1516.6202392578125
316048.3229144844,-640.9669189453125,-1212.365966796875,-1085.3680419921875,-1158.419189453125,-1056.6405029296875,-654.7129516601562,-1323.2752685546875,-1508.1923828125
316048.32691448444,-638.5863647460938,-1211.1849365234375,-1084.0166015625,-1157.033203125,-1054.2899169921875,-651.3760986328125,-1322.2811279296875,-1506.7730712890625
316048.3309144844,-646.209228515625,-1220.359130859375,-1092.7396240234375,-1166.02001953125,-1061.92578125,-657.8649291992188,-1331.55322265625,-1515.660400390625
316048.3349144844,-651.8372192382812,-1225.617431640625,-1097.98046875,-1171.36328125,-1067.5657958984375,-663.8721313476562,-1336.7515869140625,-1521.0496826171875
316048.3389144844,-648.8256225585938,-1221.3258056640625,-1094.0316162109375,-1167.259521484375,-1064.6356201171875,-661.994140625,-1332.3560791015625,-1517.099853515625
316048.34291448444,-640.8894653320312,-1212.450927734375,-1085.4869384765625,-1158.4906005859375,-1056.7049560546875,-654.7678833007812,-1323.4881591796875,-1508.4676513671875
316048.3469144844,-638.7546997070312,-1211.42578125,-1084.2939453125,-1157.3175048828125,-1054.520751953125,-651.5729370117188,-1322.6583251953125,-1507.2017822265625
316048.3509144844,-646.4265747070312,-1220.69677734375,-1093.09033203125,-1166.397705078125,-1062.2774658203125,-658.1307373046875,-1331.91943359375,-1516.1385498046875
316048.35491448443,-651.942138671875,-1225.99755859375,-1098.3096923828125,-1171.7364501953125,-1067.93603515625,-664.0784301757812,-1337.09521484375,-1521.582275390625
316048.3589144844,-649.0564575195312,-1221.9049072265625,-1094.53271484375,-1167.8341064453125,-1065.18115234375,-662.3198852539062,-1332.9185791015625,-1517.8402099609375
316048.3629144844,-641.0733642578125,-1212.9130859375,-1085.89208984375,-1158.9866943359375,-1057.1336669921875,-655.045166015625,-1323.98828125,-1509.0692138671875
316048.3669144844,-638.7771606445312,-1211.5196533203125,-1084.3873291015625,-1157.4903564453125,-1054.59912109375,-651.6268920898438,-1322.8555908203125,-1507.3756103515625
316048.37091448443,-646.736328125,-1220.974609375,-1093.3760986328125,-1166.7674560546875,-1062.5333251953125,-658.4144897460938,-1332.3155517578125,-1516.4608154296875
316048.37491448445,-652.286376953125,-1226.242431640625,-1098.5980224609375,-1172.09814453125,-1068.1893310546875,-664.3482055664062,-1337.4749755859375,-1521.87646484375
316048.3789144844,-649.3242797851562,-1221.9627685546875,-1094.6756591796875,-1168.0374755859375,-1065.2821044921875,-662.479248046875,-1333.140869140625,-1517.9261474609375
316048.3829144844,-641.369140625,-1212.9635009765625,-1086.01953125,-1159.1571044921875,-1057.2449951171875,-655.2365112304688,-1324.1241455078125,-1509.0882568359375
316048.38691448444,-638.7786865234375,-1211.3797607421875,-1084.303466796875,-1157.41845703125,-1054.5286865234375,-651.6264038085938,-1322.71923828125,-1507.2161865234375
316048.39091448445,-646.5285034179688,-1220.7318115234375,-1093.17529296875,-1166.5416259765625,-1062.3509521484375,-658.2076416015625,-1332.11328125,-1516.261474609375
316048.3949144844,-651.9816284179688,-1225.9041748046875,-1098.2991943359375,-1171.8013916015625,-1067.9105224609375,-664.1298828125,-1337.101806640625,-1521.5283203125
316048.3989144844,-649.010498046875,-1221.6885986328125,-1094.3853759765625,-1167.7716064453125,-1065.016357421875,-662.2568969726562,-1332.7877197265625,-1517.60693359375
316048.40291448444,-641.5139770507812,-1213.314208984375,-1086.3182373046875,-1159.478271484375,-1057.5538330078125,-655.410400390625,-1324.477783203125,-1509.4833984375
316048.40691448445,-639.248779296875,-1212.1781005859375,-1085.0452880859375,-1158.139892578125,-1055.2086181640625,-652.0840454101562,-1323.55859375,-1508.1109619140625
316048.4109144844,-646.6213989257812,-1221.1094970703125,-1093.5235595703125,-1166.868896484375,-1062.5887451171875,-658.2490844726562,-1332.5224609375,-1516.74462890625
316048.4149144844,-652.18798828125,-1226.47119140625,-1098.8172607421875,-1172.2880859375,-1068.32373046875,-664.2557983398438,-1337.770751953125,-1522.28515625
316048.41891448444,-649.32275390625,-1222.39599609375,-1095.0447998046875,-1168.39013671875,-1065.5723876953125,-662.4557495117188,-1333.7034912109375,-1518.5941162109375
316048.42291448446,-641.60693359375,-1213.6539306640625,-1086.655029296875,-1159.81298828125,-1057.8035888671875,-655.3713989257812,-1325.0709228515625,-1510.06396484375
316048.4269144845,-639.5980224609375,-1212.8680419921875,-1085.67578125,-1158.82177734375,-1055.8192138671875,-652.394775390625,-1324.3759765625,-1508.94677734375
316048.43091448443,-647.4932250976562,-1222.27001953125,-1094.6162109375,-1168.0623779296875,-1063.7384033203125,-659.182373046875,-1333.701416015625,-1517.9571533203125
316048.43491448445,-652.83642578125,-1227.0792236328125,-1099.413818359375,-1172.9830322265625,-1069.015625,-664.9562377929688,-1338.4051513671875,-1522.8377685546875
316048.43891448446,-649.5111083984375,-1222.3060302734375,-1094.986328125,-1168.39111328125,-1065.6168212890625,-662.6805419921875,-1333.5201416015625,-1518.328369140625
316048.4429144845,-641.166748046875,-1212.8316650390625,-1085.86767578125,-1159.088134765625,-1057.130615234375,-654.9607543945312,-1324.0697021484375,-1508.999267578125
316048.44691448443,-639.0584716796875,-1211.7789306640625,-1084.68310546875,-1157.93505859375,-1054.9228515625,-651.8362426757812,-1323.136474609375,-1507.595458984375
316048.45091448445,-646.9181518554688,-1221.156494140625,-1093.6314697265625,-1167.1561279296875,-1062.8226318359375,-658.6163330078125,-1332.56982421875,-1516.6417236328125
316048.45491448446,-652.6450805664062,-1226.4771728515625,-1098.9346923828125,-1172.5458984375,-1068.571044921875,-664.7589111328125,-1337.8836669921875,-1522.1378173828125
316048.4589144845,-649.7523803710938,-1222.2706298828125,-1095.080322265625,-1168.5574951171875,-1065.706298828125,-662.9038696289062,-1333.6805419921875,-1518.3228759765625
316048.46291448444,-641.3226318359375,-1212.86962890625,-1086.0050048828125,-1159.3123779296875,-1057.24755859375,-655.1596069335938,-1324.2420654296875,-1509.0926513671875
316048.46691448445,-639.4041748046875,-1212.009765625,-1084.9703369140625,-1158.2952880859375,-1055.2166748046875,-652.199462890625,-1323.4981689453125,-1507.875244140625
316048.47091448447,-646.9436645507812,-1220.9041748046875,-1093.4515380859375,-1167.0267333984375,-1062.668701171875,-658.6387939453125,-1332.3900146484375,-1516.359375
316048.4749144845,-652.2504272460938,-1225.8851318359375,-1098.3951416015625,-1172.0821533203125,-1068.0633544921875,-664.42919921875,-1337.3135986328125,-1521.500244140625
316048.47891448444,-649.2727661132812,-1221.804931640625,-1094.6026611328125,-1168.1488037109375,-1065.2366943359375,-662.4887084960938,-1333.246826171875,-1517.857177734375
316048.48291448446,-641.468017578125,-1213.2117919921875,-1086.3177490234375,-1159.6422119140625,-1057.5123291015625,-655.2879638671875,-1324.7401123046875,-1509.5858154296875
316048.48691448447,-639.49462890625,-1212.5333251953125,-1085.448486328125,-1158.7203369140625,-1055.554931640625,-652.2694091796875,-1324.193115234375,-1508.655517578125
316048.4909144845,-647.7954711914062,-1222.5303955078125,-1094.949951171875,-1168.4810791015625,-1063.9681396484375,-659.4036865234375,-1334.2730712890625,-1518.4501953125
316048.49491448444,-653.278564453125,-1227.744140625,-1100.101806640625,-1173.722412109375,-1069.5582275390625,-665.2919921875,-1339.4388427734375,-1523.8658447265625
316048.49891448446,-649.7708740234375,-1222.8555908203125,-1095.5599365234375,-1169.0421142578125,-1066.007568359375,-662.83447265625,-1334.4483642578125,-1519.2525634765625
316048.5029144845,-642.0225830078125,-1214.1640625,-1087.1656494140625,-1160.4429931640625,-1058.2642822265625,-655.7291259765625,-1325.6768798828125,-1510.7288818359375
316048.50691448443,-640.2310180664062,-1213.5216064453125,-1086.3367919921875,-1159.6561279296875,-1056.4132080078125,-652.868408203125,-1325.0972900390625,-1509.74072265625
316048.51091448445,-647.9818115234375,-1222.8851318359375,-1095.2047119140625,-1168.8133544921875,-1064.2684326171875,-659.5970458984375,-1334.4073486328125,-1518.7010498046875
316048.51491448446,-652.8554077148438,-1227.4544677734375,-1099.717041015625,-1173.4361572265625,-1069.2703857421875,-664.959228515625,-1338.83935546875,-1523.3828125
316048.5189144845,-650.1016235351562,-1223.4786376953125,-1096.04248046875,-1169.59423828125,-1066.632568359375,-663.2371215820312,-1334.776611328125,-1519.78369140625
316048.52291448443,-642.2409057617188,-1214.7860107421875,-1087.6278076171875,-1160.9046630859375,-1058.8363037109375,-656.0698852539062,-1326.0450439453125,-1511.3199462890625
316048.52691448445,-639.8388061523438,-1213.3807373046875,-1086.0794677734375,-1159.302978515625,-1056.23779296875,-652.6336059570312,-1324.70361328125,-1509.4874267578125
316048.5309144844,-647.6141357421875,-1222.5408935546875,-1094.821044921875,-1168.3096923828125,-1063.920654296875,-659.289794921875,-1333.912841796875,-1518.2518310546875
316048.5349144844,-653.4134521484375,-1228.0224609375,-1100.2801513671875,-1173.8768310546875,-1069.8165283203125,-665.4993286132812,-1339.4398193359375,-1523.943359375
316048.53891448444,-650.3169555664062,-1223.699951171875,-1096.308837890625,-1169.7666015625,-1066.8323974609375,-663.4359741210938,-1335.2027587890625,-1520.053955078125
316048.54291448445,-642.1204833984375,-1214.736572265625,-1087.626708984375,-1160.9136962890625,-1058.7752685546875,-655.9324951171875,-1326.20751953125,-1511.3409423828125
316048.5469144844,-639.9877319335938,-1213.75341796875,-1086.4771728515625,-1159.78857421875,-1056.5616455078125,-652.7705078125,-1325.26416015625,-1510.0179443359375
316048.5509144844,-647.8624267578125,-1223.1468505859375,-1095.3980712890625,-1169.004150390625,-1064.4033203125,-659.5195922851562,-1334.648193359375,-1519.0887451171875
316048.55491448444,-653.492919921875,-1228.388671875,-1100.619384765625,-1174.3359375,-1070.0772705078125,-665.5437622070312,-1339.861572265625,-1524.5093994140625
316048.55891448446,-650.2115478515625,-1223.656005859375,-1096.2838134765625,-1169.81298828125,-1066.7314453125,-663.2855834960938,-1335.13037109375,-1520.1004638671875
316048.5629144844,-641.8207397460938,-1214.1695556640625,-1087.1575927734375,-1160.4874267578125,-1058.1898193359375,-655.4938354492188,-1325.6904296875,-1510.8048095703125
316048.5669144844,-640.0711669921875,-1213.5899658203125,-1086.4031982421875,-1159.7860107421875,-1056.355224609375,-652.6835327148438,-1325.339111328125,-1509.9505615234375
316048.57091448444,-647.9828491210938,-1223.159423828125,-1095.5009765625,-1169.177978515625,-1064.390380859375,-659.528076171875,-1334.971435546875,-1519.2716064453125
316048.57491448446,-653.5853271484375,-1228.439697265625,-1100.730224609375,-1174.501220703125,-1070.104248046875,-665.604736328125,-1340.154296875,-1524.72119140625
316048.5789144844,-650.20703125,-1223.7183837890625,-1096.3468017578125,-1169.906494140625,-1066.77392578125,-663.3080444335938,-1335.357666015625,-1520.3187255859375
316048.58291448443,-641.8602294921875,-1214.35693359375,-1087.3519287109375,-1160.6702880859375,-1058.359619140625,-655.584228515625,-1326.0301513671875,-1511.1824951171875
316048.58691448445,-640.0277099609375,-1213.6395263671875,-1086.4886474609375,-1159.7869873046875,-1056.3807373046875,-652.6231079101562,-1325.49853515625,-1510.1788330078125
316048.59091448446,-648.3919677734375,-1223.47265625,-1095.8662109375,-1169.4078369140625,-1064.685546875,-659.8268432617188,-1335.41064453125,-1519.67529296875
316048.5949144844,-653.6717529296875,-1228.3707275390625,-1100.730224609375,-1174.35791015625,-1070.0423583984375,-665.6141967773438,-1340.1143798828125,-1524.6697998046875
316048.59891448444,-649.9921875,-1223.38720703125,-1096.0550537109375,-1169.519287109375,-1066.439208984375,-663.02880859375,-1334.969482421875,-1519.9820556640625
316048.60291448445,-641.5419921875,-1214.088623046875,-1087.021240234375,-1160.26220703125,-1058.058837890625,-655.2479858398438,-1325.6353759765625,-1510.88427734375
316048.6069144844,-640.0596313476562,-1213.97021484375,-1086.635009765625,-1159.9144287109375,-1056.62158203125,-652.7210083007812,-1325.596923828125,-1510.4561767578125
316048.6109144844,-648.5398559570312,-1224.087158203125,-1096.2333984375,-1169.7960205078125,-1065.2052001953125,-660.108154296875,-1335.7108154296875,-1520.2432861328125
316048.61491448444,-653.7482299804688,-1228.8173828125,-1100.9505615234375,-1174.59814453125,-1070.4224853515625,-665.8035888671875,-1340.38916015625,-1525.0709228515625
316048.61891448445,-650.1361083984375,-1223.8148193359375,-1096.322265625,-1169.7540283203125,-1066.825439453125,-663.3045654296875,-1335.2867431640625,-1520.356201171875
316048.6229144844,-641.86572265625,-1214.6207275390625,-1087.4793701171875,-1160.661376953125,-1058.5665283203125,-655.6861572265625,-1326.1175537109375,-1511.3619384765625
316048.6269144844,-639.8853149414062,-1213.8388671875,-1086.483154296875,-1159.6986083984375,-1056.49609375,-652.6136474609375,-1325.445556640625,-1510.2432861328125
316048.6309144844,-647.81494140625,-1223.1573486328125,-1095.3236083984375,-1168.8572998046875,-1064.3133544921875,-659.43017578125,-1334.74560546875,-1519.1846923828125
316048.6349144844,-653.1502075195312,-1227.9075927734375,-1100.1087646484375,-1173.7493896484375,-1069.5831298828125,-665.2535400390625,-1339.3919677734375,-1524.064208984375
316048.6389144844,-649.6949462890625,-1222.89306640625,-1095.5069580078125,-1168.9957275390625,-1066.0035400390625,-662.8349609375,-1334.322509765625,-1519.3504638671875
316048.64291448443,-641.1787719726562,-1213.2962646484375,-1086.2823486328125,-1159.5811767578125,-1057.3919677734375,-654.9622192382812,-1324.735595703125,-1509.9080810546875
316048.6469144844,-639.4576416015625,-1212.912109375,-1085.6802978515625,-1159.0001220703125,-1055.65185546875,-652.1155395507812,-1324.561767578125,-1509.233642578125
