lsl_time,CZ,C3,CPZ3,FC4,FC3,CPZ4,C4,CPZ
304841.41069287126,0.08730867505073547,0.1270011067390442,0.1269843429327011,0.0806950181722641,0.05105682834982872,-0.11022316664457321,-0.31701716780662537,-0.3266426920890808
304841.4146928712,0.15409699082374573,0.298066109418869,0.4292117953300476,0.5509142279624939,0.752794086933136,0.7395249009132385,0.9041120409965515,1.0645431280136108
304841.41869287123,0.2143021672964096,0.4727988541126251,0.7498664855957031,1.0908018350601196,1.5658823251724243,1.7521169185638428,2.337467670440674,2.661578416824341
304841.42269287125,0.24412985146045685,0.5398266911506653,0.8594325184822083,1.251631736755371,1.7895019054412842,2.0430727005004883,2.6883270740509033,3.1124699115753174
304841.42669287126,0.17136681079864502,0.441550076007843,0.7566006183624268,1.0396696329116821,1.2783691883087158,1.7119680643081665,1.5080783367156982,1.503244161605835
304841.4306928712,0.2720876932144165,0.6973528265953064,1.1188545227050781,1.3822566270828247,1.4395389556884766,1.4623969793319702,0.9312258362770081,1.0013535022735596
304841.43469287123,0.35492411255836487,0.8998139500617981,1.3726733922958374,1.5421862602233887,1.3255243301391602,0.8064618706703186,-0.05685785412788391,0.30795586109161377
304841.43869287125,0.4032500088214874,1.0242516994476318,1.5632240772247314,1.764989972114563,1.52415931224823,0.8906394243240356,-0.0723663792014122,0.27236732840538025
304841.44269287126,0.2771289348602295,0.6217799782752991,0.6444358229637146,0.267187237739563,-0.10448013246059418,0.05013683810830116,1.0733740329742432,1.9499913454055786
304841.4466928712,0.43257513642311096,0.9274763464927673,0.8433926105499268,0.18998292088508606,-0.19859936833381653,0.4221119284629822,2.2669405937194824,3.4084692001342773
304841.45069287124,0.49777549505233765,1.0759682655334473,0.9820824265480042,0.22732692956924438,-0.292736679315567,0.4085748791694641,2.5629043579101562,3.9828009605407715
304841.45469287125,0.27717339992523193,0.4535139799118042,0.13075827062129974,-0.1327153742313385,0.401195764541626,1.5046480894088745,1.6209135055541992,0.4223209321498871
304841.4586928712,0.3979893922805786,0.5414680242538452,0.002936199540272355,0.07105176150798798,1.3294907808303833,2.0115036964416504,1.070737361907959,0.4736096262931824
304841.4626928712,0.48366817831993103,0.551715075969696,-0.1715315580368042,0.355610728263855,2.2807095050811768,2.1848340034484863,0.15782885253429413,0.8344371318817139
304841.46669287124,0.548941969871521,0.6259809732437134,-0.20042657852172852,0.38855352997779846,2.6445963382720947,2.5714211463928223,0.10036244243383408,0.6477905511856079
304841.47069287125,0.28679853677749634,0.15398448705673218,-0.10882576555013657,0.8214653730392456,1.1451178789138794,-0.1176786869764328,0.4433799982070923,3.5631532669067383
304841.4746928712,0.39969930052757263,0.10342791676521301,0.047256335616111755,1.3720883131027222,1.0156606435775757,-0.05806289240717888,1.6514164209365845,2.7799935340881348
304841.4786928712,0.47449713945388794,0.016747312620282173,0.26094576716423035,1.8340660333633423,0.6051838994026184,0.1471291333436966,2.878357410430908,1.354615569114685
304841.48269287124,0.538088858127594,0.014095425605773926,0.30015429854393005,2.092911720275879,0.6772567629814148,0.07650242745876312,3.373100519180298,1.5036993026733398
304841.48669287126,0.25859880447387695,-0.10215470939874649,0.5694040656089783,0.8047787547111511,-0.1910327821969986,1.3828752040863037,0.8756778836250305,0.1278197467327118
304841.4906928712,0.34379491209983826,-0.14155569672584534,0.9944371581077576,0.6860790252685547,0.19397394359111786,2.06441330909729,0.36365529894828796,1.4145394563674927
304841.49469287123,0.3915970027446747,-0.16025318205356598,1.3528785705566406,0.3928787410259247,0.6994561553001404,2.4150593280792236,-0.236940398812294,2.9341542720794678
304841.49869287125,0.44484037160873413,-0.18818336725234985,1.5523723363876343,0.4294589161872864,0.7733055353164673,2.8470146656036377,-0.4285013675689697,3.376391649246216
304841.50269287126,0.19401594996452332,-0.009199811145663261,0.8435847163200378,-0.1042398065328598,1.288060188293457,0.15807904303073883,1.1071645021438599,0.9099253416061401
304841.5066928712,0.24635754525661469,0.08594325184822083,1.0397876501083374,-0.019964074715971947,1.7119641304016113,0.06095033511519432,2.061121940612793,0.5062695145606995
304841.51069287123,0.2683301866054535,0.19714903831481934,1.080102562904358,0.13228362798690796,1.917418360710144,0.0459432415664196,2.7739920616149902,0.1117066890001297
304841.51469287125,0.3044808506965637,0.2253270000219345,1.2298219203948975,0.1265125870704651,2.1977884769439697,-0.00495471665635705,3.286372184753418,-0.0246388241648674
304841.51869287126,0.11294981837272644,0.2893245816230774,0.22958457469940186,0.6905303001403809,0.22625073790550232,1.3005614280700684,0.10346666723489761,1.9713070392608643
304841.5226928712,0.12764154374599457,0.5351700186729431,0.1301776021718979,1.271574854850769,-0.05103234201669693,2.04975962638855,0.03673939406871796,2.561547040939331
304841.52669287124,0.12298797070980072,0.7616350650787354,-0.012722675688564777,1.7727069854736328,-0.34870433807373047,2.546168088912964,0.1774115264415741,2.54569411277771
304841.53069287125,0.138595849275589,0.8701190948486328,-0.028482822701334953,2.0550522804260254,-0.43236860632896423,2.9093785285949707,0.10330212861299515,3.0003557205200195
304841.53469287127,0.027385275810956955,0.562811553478241,-0.12090259790420532,0.9984381794929504,0.5019404888153076,0.22411254048347473,1.9234470129013062,-0.017672589048743248
304841.5386928712,0.01695341244339943,0.7968339920043945,-0.06063543260097504,0.9379848837852478,1.2556304931640625,-0.04926310479640961,2.8797996044158936,1.1424355506896973
304841.54269287124,0.0011084291618317366,0.9523969292640686,0.06329155713319778,0.6933602094650269,1.9936633110046387,-0.27414804697036743,3.424184799194336,2.578028440475464
304841.54669287126,-0.0006032556411810219,1.0865066051483154,0.06194952502846718,0.7706192135810852,2.3042843341827393,-0.37851643562316895,4.182547092437744,2.909205436706543
304841.5506928713,-0.040495581924915314,0.5456783175468445,0.5561623573303223,-0.24530038237571716,1.1680852174758911,1.3455743789672852,-0.018169760704040527,1.3064322471618652
304841.5546928712,-0.06883680820465088,0.770037829875946,0.9857470989227295,-0.38676196336746216,1.349830985069275,2.5288825035095215,0.17130602896213531,1.2923346757888794
304841.55869287124,-0.07920315861701965,0.8861626386642456,1.1272119283676147,-0.4439885914325714,1.5789262056350708,2.869021415710449,0.1268831044435501,1.5096453428268433
304841.56269287126,-0.04467230662703514,0.315665066242218,0.8667353391647339,0.24055859446525574,-0.11057023704051971,1.3127286434173584,1.715344786643982,0.2601100504398346
304841.5666928712,-0.06433451175689697,0.32911092042922974,1.1812747716903687,0.7820411324501038,-0.0189456008374691,0.8423143029212952,2.198223829269409,1.8191566467285156
304841.57069287123,-0.07595248520374298,0.2827112376689911,1.3761959075927734,1.3613951206207275,0.13796207308769226,0.029156740754842758,2.290583848953247,3.5092241764068604
304841.57469287125,-0.08778563141822815,0.31804871559143066,1.5692209005355835,1.5613361597061157,0.14153887331485748,0.029704131186008453,2.7186295986175537,4.09793758392334
304841.57869287126,-0.037680115550756454,0.014170346781611443,0.5502642393112183,1.1243034601211548,0.9003987312316895,0.1316508799791336,-0.13683272898197174,0.6991900205612183
304841.5826928712,-0.03893715888261795,-0.06270584464073181,0.5136657953262329,1.3306714296340942,1.5544894933700562,1.0571000576019287,0.32893261313438416,0.49122685194015503
304841.58669287123,-0.032985441386699677,-0.15150266885757446,0.3648785650730133,1.352080225944519,2.087064504623413,2.059203863143921,1.0927752256393433,0.41038012504577637
304841.59069287125,-0.03701869025826454,-0.17938964068889618,0.4090282917022705,1.5313793420791626,2.395887613296509,2.3879940509796143,1.2076159715652466,0.26794156432151794
304841.59469287127,0.007239184807986021,-0.06790442019701004,-0.114801324903965,0.21210439503192902,0.7771637439727783,1.504723072052002,2.172485113143921,2.7591629028320312
304841.5986928712,0.03839875012636185,-0.04841991886496544,-0.14781935513019562,-0.03244093060493469,0.5568417906761169,1.2020626068115234,1.9859799146652222,2.7113165855407715
304841.60269287124,0.07274511456489563,-0.009218540973961353,-0.142267107963562,-0.33378639817237854,0.20365452766418457,0.562877893447876,1.2728546857833862,2.126950740814209
304841.60669287125,0.08329170197248459,-0.012726845219731331,-0.17012323439121246,-0.41769686341285706,0.19532234966754913,0.6048755645751953,1.4325393438339233,2.4240987300872803
304841.61069287127,0.08514741063117981,0.11372924596071243,0.12121044844388962,0.07161901146173477,0.007836486212909222,-0.2488439828157425,-0.1358906477689743,0.0985218733549118
304841.6146928712,0.15315617620944977,0.2923278510570526,0.4430229961872101,0.5620099902153015,0.7241397500038147,0.7954307794570923,1.0362449884414673,1.3634626865386963
304841.61869287124,0.21478122472763062,0.4747225344181061,0.79734867811203,1.1195237636566162,1.5487669706344604,2.063918352127075,2.50506591796875,2.8550467491149902
304841.62269287126,0.24476997554302216,0.5430100560188293,0.9112651348114014,1.285142183303833,1.773947834968567,2.374547004699707,2.8596115112304688,3.275557518005371
304841.6266928713,0.1724480539560318,0.444478303194046,0.7736282348632812,1.13395094871521,1.3222968578338623,1.5394728183746338,1.4114586114883423,1.497215747833252
304841.63069287123,0.2732376456260681,0.7134088277816772,1.1674586534500122,1.4555881023406982,1.501041054725647,1.3778886795043945,0.9613967537879944,0.7894358038902283
304841.63469287124,0.35541999340057373,0.937492311000824,1.4417030811309814,1.561037302017212,1.3653178215026855,0.8297755718231201,0.19286483526229858,-0.0702560767531395
304841.63869287126,0.40442872047424316,1.0706695318222046,1.6607394218444824,1.7910687923431396,1.5808732509613037,0.9218407273292542,0.12094289064407349,-0.2712401747703552
304841.6426928713,0.24649976193904877,0.5780036449432373,0.6615003347396851,0.30874308943748474,-0.1749294102191925,-0.18321509659290314,0.5123665928840637,1.459337592124939
304841.64669287123,0.3640371263027191,0.7727174758911133,0.6667861938476562,0.049209121614694595,-0.11746422946453094,0.5866448879241943,1.759264349937439,2.328993320465088
304841.65069287125,0.4508036971092224,0.8787839412689209,0.5380482077598572,-0.26908349990844727,0.05466490611433983,1.6287727355957031,2.9378128051757812,2.8028757572174072
304841.65469287126,0.5130813121795654,1.0016237497329712,0.6076215505599976,-0.34237220883369446,0.005607414525002241,1.843776822090149,3.5057168006896973,3.3974430561065674
304841.6586928713,0.28977084159851074,0.39700227975845337,-0.00947903748601675,0.001965360017493367,0.9817011952400208,1.818311095237732,0.8113945126533508,0.046040598303079605
304841.66269287124,0.4128088653087616,0.4409436285495758,-0.11452837288379669,0.3950556218624115,1.809951663017273,1.6183303594589233,0.5537034273147583,0.75706946849823
304841.66669287125,0.4978800415992737,0.4133770763874054,-0.22012461721897125,0.8586936593055725,2.50665020942688,1.012752890586853,0.24899226427078247,1.6960781812667847
304841.67069287127,0.5645397901535034,0.4671734571456909,-0.2526356875896454,0.9767599105834961,2.9094042778015137,1.142019271850586,0.197739839553833,1.8937432765960693
304841.6746928713,0.3155461549758911,0.03876246511936188,0.08619466423988342,1.1547324657440186,0.613165557384491,0.12521977722644806,2.0697081089019775,1.4800848960876465
304841.67869287124,0.4706929326057434,-0.0029186413157731295,0.2705690264701843,1.7208882570266724,0.5685434937477112,0.36671972274780273,4.252887725830078,1.5386239290237427
304841.68269287125,0.5430406928062439,-0.003813269780948758,0.30597761273384094,1.9866608381271362,0.6599255204200745,0.4045495092868805,4.734625339508057,1.8062541484832764
304841.68669287127,0.26647475361824036,-0.05852557346224785,0.5618084073066711,0.8400365114212036,-0.278494656085968,1.4836173057556152,1.7174499034881592,-0.29817426204681396
304841.6906928712,0.35301557183265686,-0.1050400659441948,0.9552077651023865,0.698137640953064,0.14915388822555542,2.1274523735046387,1.0657657384872437,1.094520926475525
304841.69469287124,0.4008236825466156,-0.14432837069034576,1.2783288955688477,0.3772810995578766,0.7211917042732239,2.4355361461639404,0.19482769072055817,2.6483869552612305
304841.69869287126,0.4541570544242859,-0.16410507261753082,1.4590623378753662,0.40935322642326355,0.8089486956596375,2.8595731258392334,0.11097586154937744,3.1555302143096924
304841.7026928713,0.1981540024280548,-0.022595437243580818,0.8785297274589539,-0.14640925824642181,1.224713683128357,0.1288728415966034,1.296886920928955,1.1197876930236816
304841.70669287123,0.24979104101657867,0.07045447081327438,1.0406157970428467,-0.0840793177485466,1.7208257913589478,0.0375632680952549,2.2288055419921875,0.780792772769928
304841.71069287125,0.2705284357070923,0.18589262664318085,1.0558280944824219,0.0747210830450058,1.9708253145217896,0.047933850437402725,2.8195314407348633,0.4041023850440979
304841.71469287126,0.3067675232887268,0.21288180351257324,1.2023873329162598,0.057017095386981964,2.2928214073181152,-0.010778398253023624,3.3244516849517822,0.29540690779685974
304841.7186928713,0.11292831599712372,0.28857356309890747,0.24211540818214417,0.6800096035003662,0.2326669842004776,1.2692676782608032,0.2468690127134323,2.994457721710205
304841.72269287123,0.12826254963874817,0.5234073400497437,0.11897190660238266,1.3060256242752075,0.041349057108163834,1.9811997413635254,0.16339190304279327,3.0069353580474854
304841.72669287125,0.12429925799369812,0.7349532842636108,-0.0562257394194603,1.8795284032821655,-0.16358409821987152,2.418339252471924,0.18831972777843475,2.3442773818969727
304841.73069287126,0.1403237283229828,0.8415284156799316,-0.08607222139835358,2.155129909515381,-0.20189228653907776,2.78098201751709,0.07029307633638382,2.6365740299224854
304841.7346928713,0.02956509403884411,0.5479402542114258,-0.13461057841777802,0.9870421290397644,0.4296061098575592,0.33058011531829834,1.8329473733901978,-0.04123128205537796
304841.73869287124,0.019845427945256233,0.7956171631813049,-0.03381641209125519,0.9364222288131714,1.3613046407699585,0.06922207027673721,2.2083513736724854,1.106939673423767
304841.74269287125,0.003923159092664719,0.9753144383430481,0.11765892058610916,0.6840784549713135,2.3215572834014893,-0.20464244484901428,2.0759408473968506,2.6505725383758545
304841.74669287127,0.0037486772052943707,1.1092052459716797,0.12773939967155457,0.7631614208221436,2.6869888305664062,-0.2911067008972168,2.41422176361084,2.9668214321136475
304841.7506928713,-0.03860994055867195,0.5347821712493896,0.550397515296936,-0.18537487089633942,1.0125375986099243,1.3303439617156982,-0.16314101219177246,1.246837854385376
304841.75469287124,-0.06438476592302322,0.7771774530410767,0.9565660953521729,-0.3177524209022522,1.196318507194519,2.442518472671509,0.02897750958800316,0.9904415011405945
304841.75869287126,-0.07365712523460388,0.894343376159668,1.1023069620132446,-0.3606716990470886,1.3977899551391602,2.799046516418457,-0.03419363498687744,1.1939833164215088
304841.76269287127,-0.04603755101561546,0.32292747497558594,0.8422365784645081,0.21494580805301666,-0.04360668361186981,1.1556369066238403,1.6921653747558594,0.12379296869039536
304841.7666928712,-0.06730581074953079,0.3334742486476898,1.176613688468933,0.801701545715332,-0.06280593574047089,0.834592878818512,2.2438154220581055,1.4295910596847534
304841.77069287124,-0.08155776560306549,0.28415215015411377,1.3999112844467163,1.4417723417282104,-0.009328106418251991,0.28030842542648315,2.361886978149414,2.876295566558838
304841.77469287126,-0.09217366576194763,0.31956562399864197,1.5988702774047852,1.6485804319381714,-0.05845987796783447,0.24936796724796295,2.8030028343200684,3.3233745098114014
304841.7786928713,-0.041023653000593185,0.007371529005467892,0.572160542011261,1.1349273920059204,0.9692891240119934,0.01564464159309864,0.052685439586639404,0.810912549495697
304841.78269287123,-0.03948038071393967,-0.06460624188184738,0.5238775610923767,1.37415611743927,1.7242178916931152,0.9801995158195496,0.6004764437675476,0.7001680731773376
304841.78669287125,-0.0279900711029768,-0.13788729906082153,0.3639377951622009,1.4156452417373657,2.349438190460205,2.0268568992614746,1.3501513004302979,0.6199045777320862
304841.79069287126,-0.03127213194966316,-0.16276536881923676,0.403343141078949,1.6258926391601562,2.70041823387146,2.3926656246185303,1.491572380065918,0.6211854815483093
304841.7946928713,0.005930767394602299,-0.07358760386705399,-0.107436403632164,0.2082478404045105,0.6847103238105774,1.5767996311187744,1.9469399452209473,1.9689959287643433
304841.79869287123,0.03878812864422798,-0.06815395504236221,-0.16717711091041565,0.04493148624897003,0.4201693832874298,1.2471415996551514,1.836472988128662,2.312511444091797
304841.80269287125,0.07571887969970703,-0.03943803533911705,-0.19288793206214905,-0.15799570083618164,0.046776290982961655,0.6065942049026489,1.2620457410812378,2.0282974243164062
304841.80669287127,0.08709470182657242,-0.04834628850221634,-0.2311476320028305,-0.19489029049873352,-0.021724337711930275,0.613747239112854,1.4184237718582153,2.4389569759368896
304841.8106928713,0.08655813336372375,0.1270935833454132,0.1394190937280655,0.11198795586824417,0.018519645556807518,-0.24478498101234436,-0.22493258118629456,-0.15888649225234985
304841.81469287124,0.15383020043373108,0.3001362681388855,0.44813814759254456,0.5579972267150879,0.7217198014259338,0.7695080637931824,1.5861998796463013,0.9334258437156677
304841.81869287125,0.2147354930639267,0.47595083713531494,0.7842351198196411,1.0654206275939941,1.5366207361221313,1.9897937774658203,4.0430378913879395,2.326730251312256
304841.82269287127,0.24461789429187775,0.5430723428726196,0.8948749303817749,1.225929856300354,1.7595431804656982,2.2947280406951904,4.455755710601807,2.7076616287231445
304841.8266928713,0.1690213978290558,0.45197224617004395,0.7524242401123047,1.1167317628860474,1.3709001541137695,1.6849205493927002,2.8328161239624023,1.5548800230026245
304841.83069287124,0.2667625844478607,0.709056556224823,1.123193621635437,1.4255166053771973,1.5019421577453613,1.4847556352615356,2.046478509902954,0.7466530799865723
304841.83469287126,0.3461310565471649,0.9131153225898743,1.3851449489593506,1.5503102540969849,1.318948745727539,0.889827311038971,0.686660885810852,-0.28321129083633423
304841.8386928713,0.39404287934303284,1.0399084091186523,1.586470603942871,1.759163737297058,1.4971214532852173,0.9758449196815491,0.5682128071784973,-0.4805476665496826
304841.8426928713,0.245492622256279,0.5878125429153442,0.6328861117362976,0.3569996953010559,-0.04505560174584389,-0.10471277683973312,0.5282742977142334,2.2377307415008545
304841.84669287124,0.36504462361335754,0.7699463963508606,0.6480875015258789,0.1261548101902008,0.04506697505712509,0.5330402255058289,1.829896330833435,2.7342641353607178
304841.85069287126,0.45591068267822266,0.8673892617225647,0.5330387949943542,-0.1957872360944748,0.18204380571842194,1.3702493906021118,3.1060571670532227,2.7079367637634277
304841.8546928713,0.518372654914856,0.986980140209198,0.6043387651443481,-0.23972605168819427,0.19322234392166138,1.5731940269470215,3.648329496383667,3.131082057952881
304841.8586928713,0.31764355301856995,0.40193554759025574,-0.044143617153167725,0.06863629817962646,1.2601991891860962,1.471596121788025,0.6600891947746277,0.18812119960784912
304841.86269287125,0.47953253984451294,0.5428432822227478,-0.10231024771928787,0.32889044284820557,2.2297468185424805,1.9276505708694458,0.5048640966415405,0.5964086055755615
304841.86669287126,0.5507281422615051,0.6281830668449402,-0.12369510531425476,0.3689742684364319,2.571568727493286,2.2577407360076904,0.5218400359153748,0.6508496999740601
304841.8706928713,0.2882987856864929,0.14579623937606812,-0.08752947300672531,0.8394542932510376,1.2734860181808472,-0.02173735573887825,0.8886151909828186,4.030288219451904
304841.87469287124,0.4035179018974304,0.10637612640857697,0.08189121633768082,1.386533498764038,1.1137462854385376,0.03197285160422325,2.2066969871520996,3.783632278442383
304841.87869287125,0.48101845383644104,0.039028797298669815,0.294813871383667,1.8142261505126953,0.6825063228607178,0.18427090346813202,3.3411996364593506,2.394505739212036
304841.88269287127,0.5458642244338989,0.038929492235183716,0.3385685384273529,2.07790470123291,0.7428802847862244,0.126868337392807,3.8760576248168945,2.610302448272705
304841.8866928713,0.26101136207580566,-0.08855261653661728,0.5606503486633301,0.819503664970398,-0.21481876075267792,1.458952784538269,0.9303858876228333,-0.007427255157381296
304841.89069287124,0.3472667634487152,-0.13036517798900604,0.9591318368911743,0.6874662041664124,0.09578125923871994,2.0447263717651367,0.42212146520614624,1.432481288909912
304841.89469287125,0.39610394835472107,-0.1596754640340805,1.287294626235962,0.36521854996681213,0.5960037112236023,2.308621406555176,-0.20312555134296417,3.104034900665283
304841.89869287127,0.44932249188423157,-0.18099358677864075,1.47642183303833,0.40573549270629883,0.6559885144233704,2.6644041538238525,-0.33607226610183716,3.5873122215270996
304841.9026928713,0.19303958117961884,-0.02078712359070778,0.8556891679763794,-0.17804987728595734,1.3451696634292603,0.18988868594169617,1.2429027557373047,1.0934439897537231
304841.90669287124,0.24465647339820862,0.0725792795419693,1.041133999824524,-0.031442366540431976,1.776187777519226,0.14838376641273499,2.1028339862823486,0.4457177221775055
304841.91069287126,0.2665861248970032,0.18984916806221008,1.0711737871170044,0.16632258892059326,1.9559065103530884,0.1768818497657776,2.6821491718292236,-0.24028217792510986
304841.9146928713,0.3023020625114441,0.21509559452533722,1.2172719240188599,0.19390887022018433,2.225358247756958,0.11822707206010818,3.097566604614258,-0.47928956151008606
304841.9186928713,0.1133078783750534,0.2930092215538025,0.24009686708450317,0.7114874720573425,0.25301429629325867,1.2641366720199585,0.10312935709953308,1.9739512205123901
304841.92269287125,0.12804844975471497,0.5382739305496216,0.12358351796865463,1.299957275390625,0.0360996350646019,2.038602113723755,0.1721775382757187,2.4551823139190674
304841.92669287126,0.12309069186449051,0.7610501050949097,-0.051465608179569244,1.806235909461975,-0.1886386126279831,2.5632362365722656,0.40492767095565796,2.39100980758667
304841.9306928713,0.138967365026474,0.8688461780548096,-0.061200108379125595,2.0697731971740723,-0.29439836740493774,2.9531333446502686,0.3727617561817169,2.7963967323303223
304841.9346928713,0.032294873148202896,0.5646787285804749,-0.1533018797636032,0.9326270818710327,0.43335098028182983,0.24162305891513824,1.66231369972229,-0.1897537112236023
304841.93869287125,0.019736288115382195,0.7968116402626038,-0.051896728575229645,0.9155421257019043,1.1881898641586304,-0.04402458295226097,2.1190426349639893,0.8457558751106262
304841.94269287126,0.00018790845933835953,0.9507097005844116,0.10348881036043167,0.704697847366333,1.919742465019226,-0.2931765019893646,2.1338677406311035,2.1699934005737305
304841.9466928713,-0.0007713594241067767,1.0838078260421753,0.11896893382072449,0.7881295680999756,2.2117021083831787,-0.3928626477718353,2.5013742446899414,2.4957640171051025
304841.9506928713,-0.025491399690508842,0.53337562084198,0.42945364117622375,-0.20659343898296356,1.1501805782318115,1.0368443727493286,-0.3951493501663208,1.897437572479248
304841.95469287125,-0.052752479910850525,0.6550511121749878,0.8465917110443115,-0.221165731549263,1.0059934854507446,2.0673630237579346,0.35971176624298096,0.9533502459526062
304841.95869287127,-0.07675617933273315,0.6855797171592712,1.2299779653549194,-0.14968913793563843,0.5992898344993591,2.9414474964141846,1.4304543733596802,-0.37692776322364807
304841.9626928713,-0.08847309648990631,0.7765457630157471,1.410653829574585,-0.1780075579881668,0.6678418517112732,3.4387245178222656,1.6044366359710693,-0.5601745247840881
304841.9666928713,-0.05072852596640587,0.2376907616853714,0.8995819687843323,0.550721287727356,-0.16564911603927612,0.5131046772003174,1.8701304197311401,1.3498241901397705
304841.97069287125,-0.0678626224398613,0.22397758066654205,1.1449263095855713,1.190611481666565,0.20048482716083527,0.2681809663772583,1.733899474143982,2.3912270069122314
304841.97469287127,-0.07773896306753159,0.16467389464378357,1.230392575263977,1.7886017560958862,0.7277337908744812,0.012383420020341873,1.0866183042526245,3.04960560798645
304841.9786928713,-0.08785601705312729,0.18235762417316437,1.3978368043899536,2.071307897567749,0.8098275661468506,-0.06012212112545967,1.2196884155273438,3.619676351547241
304841.9826928713,-0.0330754816532135,-0.06294345110654831,0.3775065541267395,1.1138583421707153,1.3818851709365845,0.8494156002998352,0.01407802477478981,-0.25993767380714417
304841.98669287126,-0.027132799848914146,-0.11731594055891037,0.27473965287208557,1.1332961320877075,1.898807168006897,1.7926125526428223,1.1900355815887451,1.2721590995788574
304841.9906928713,-0.013924329541623592,-0.1677909791469574,0.08409269154071808,0.9132577776908875,2.12075138092041,2.6247787475585938,2.613257646560669,3.431549310684204
304841.9946928713,-0.014721531420946121,-0.1902063488960266,0.09109356999397278,1.0322600603103638,2.4525258541107178,3.026660203933716,2.9742774963378906,3.7135186195373535
304841.9986928713,0.03101387433707714,-0.06537523120641708,-0.11957018822431564,-0.09314857423305511,0.3042720854282379,0.8572037220001221,1.5498284101486206,2.9646949768066406
304842.00269287126,0.07037123292684555,-0.008961605839431286,-0.10384788364171982,-0.1481495499610901,0.1470082551240921,0.4941653609275818,0.8552113771438599,1.834870457649231
304842.0066928713,0.10992796719074249,0.06851533055305481,-0.053611937910318375,-0.16119039058685303,-0.05656526982784271,0.0071312361396849155,-0.16527199745178223,0.12706652283668518
304842.0106928713,0.12533633410930634,0.08103635162115097,-0.07251492887735367,-0.22324009239673615,-0.08714400231838226,-0.06641405820846558,-0.29766955971717834,0.041261956095695496
304842.0146928713,0.10752087831497192,0.2053447961807251,0.30236274003982544,0.3679220378398895,0.4087240397930145,0.6086020469665527,0.8806025981903076,0.4948064088821411
304842.01869287126,0.1838163435459137,0.40819570422172546,0.7003881335258484,0.9335706830024719,1.1796631813049316,1.4965740442276,1.914508581161499,1.698388695716858
304842.0226928713,0.25087499618530273,0.5987555980682373,1.0997296571731567,1.4999516010284424,1.94088876247406,2.3292148113250732,2.8307576179504395,2.7643685340881348
304842.0266928713,0.28565892577171326,0.6850773096084595,1.2579716444015503,1.7173839807510376,2.2458598613739014,2.7095537185668945,3.3252882957458496,3.2990756034851074
304842.0306928713,0.19076655805110931,0.503226637840271,0.890899121761322,1.1411762237548828,1.2964743375778198,0.9680758714675903,0.7034014463424683,0.28404948115348816
304842.03469287127,0.29902970790863037,0.7727551460266113,1.1802093982696533,1.269327163696289,1.1124790906906128,0.5535858273506165,0.5494264960289001,0.43270304799079895
304842.0386928713,0.3850511312484741,0.9826437830924988,1.3402047157287598,1.172984004020691,0.6559047102928162,-0.07251986861228943,0.3615877330303192,0.7637125253677368
304842.0426928713,0.4390895962715149,1.1195240020751953,1.5217300653457642,1.3304096460342407,0.705259382724762,-0.1371278464794159,0.32159560918807983,0.6914874911308289
304842.0466928713,0.2544155716896057,0.5675792098045349,0.4821968972682953,0.013444293290376663,-0.2500602602958679,0.3063550591468811,1.3943794965744019,2.1614973545074463
304842.0506928713,0.38039278984069824,0.739946186542511,0.42568567395210266,-0.08835791051387787,0.14651016891002655,1.3097624778747559,2.221921920776367,2.08016300201416
304842.0546928713,0.4749891757965088,0.8257033228874207,0.26393407583236694,-0.18663610517978668,0.6889079213142395,2.3787882328033447,2.7069036960601807,1.4303306341171265
304842.0586928713,0.5413563847541809,0.9394072890281677,0.29624032974243164,-0.2153676450252533,0.7721476554870605,2.737748384475708,3.223771333694458,1.6123542785644531
304842.0626928713,0.3154199421405792,0.3126521110534668,-0.0732937604188919,0.4131288230419159,1.4494960308074951,1.0020177364349365,-0.11260552704334259,0.5784181356430054
304842.0666928713,0.4769693911075592,0.4068930447101593,-0.12423364818096161,0.8615685701370239,2.2093305587768555,0.9141258597373962,-0.2547595202922821,1.7612353563308716
304842.0706928713,0.5480299592018127,0.4708099365234375,-0.15146178007125854,0.9777283072471619,2.5617733001708984,1.0965912342071533,-0.34600630402565,1.9801486730575562
304842.0746928713,0.2871149778366089,0.060673970729112625,-0.014678292907774448,1.15839421749115,0.7026329636573792,-0.3979264497756958,1.3422152996063232,2.107987880706787
304842.07869287126,0.3934243321418762,0.00797466840595007,0.2564602196216583,1.6038544178009033,0.416066437959671,0.3194895386695862,2.237198829650879,1.4204741716384888
304842.0826928713,0.45828914642333984,-0.05484751611948013,0.5731921792030334,1.8617157936096191,-0.0016854243585839868,1.2647136449813843,2.8467986583709717,0.3776944875717163
304842.0866928713,0.5214601159095764,-0.07044997811317444,0.6568479537963867,2.133558511734009,-0.06184142082929611,1.421170711517334,3.2900445461273193,0.23770248889923096
304842.0906928713,0.25036492943763733,-0.11517231911420822,0.6913175582885742,0.49062809348106384,0.03623031824827194,1.7610492706298828,0.1356726586818695,1.2105470895767212
304842.09469287127,0.3275180160999298,-0.13959433138370514,1.0706332921981812,0.2592536509037018,0.7186121344566345,1.7796465158462524,0.37147045135498047,2.402423143386841
304842.0986928713,0.36830151081085205,-0.13847945630550385,1.3515138626098633,-0.08590787649154663,1.520131230354309,1.4053874015808105,0.7029422521591187,3.227114677429199
304842.1026928713,0.41730719804763794,-0.15838682651519775,1.5418167114257812,-0.1250549852848053,1.744429111480713,1.609874963760376,0.7503644227981567,3.882051467895508
304842.1066928713,0.17849092185497284,0.057074714452028275,0.7791057825088501,-0.08106853067874908,1.364168405532837,-0.3763545751571655,2.1516292095184326,0.03458599001169205
304842.11069287127,0.22004754841327667,0.18980532884597778,0.8321671485900879,0.21152988076210022,1.484555721282959,0.12207522243261337,2.2476208209991455,0.8666052222251892
304842.1146928713,0.23344193398952484,0.3334444463253021,0.7512773275375366,0.5962994694709778,1.3270584344863892,0.8744576573371887,1.7846972942352295,2.2392170429229736
304842.1186928713,0.2643541395664215,0.3799840807914734,0.8458076119422913,0.6673773527145386,1.512547492980957,0.9834808111190796,2.037555694580078,2.3212850093841553
304842.1226928713,0.09245794266462326,0.3733634650707245,0.057492274791002274,0.9231082201004028,-0.09886263310909271,1.6363507509231567,-0.22883029282093048,3.27473783493042
304842.1266928713,0.10037194192409515,0.6273609399795532,-0.06334351748228073,1.441048502922058,-0.012459917925298214,1.9630101919174194,0.60934978723526,2.370389461517334
304842.1306928713,0.0913681909441948,0.8435347676277161,-0.19256280362606049,1.8449270725250244,0.18502745032310486,1.8709708452224731,1.677823781967163,0.7917778491973877
304842.1346928713,0.10344910621643066,0.9593417644500732,-0.23973886668682098,2.1002163887023926,0.19872209429740906,2.1728219985961914,1.8674156665802002,0.7919535040855408
304842.1386928713,0.01544533483684063,0.6016377806663513,-0.06184520572423935,0.6308378577232361,0.9767856597900391,-0.3816322982311249,2.177030324935913,0.17580215632915497
304842.1426928713,-0.001124729635193944,0.8287193775177002,0.1283969134092331,0.49503034353256226,1.716181755065918,-0.149903804063797,1.9517661333084106,1.8511812686920166
304842.1466928713,-0.023078233003616333,0.9692415595054626,0.3721010088920593,0.234089657664299,2.2989606857299805,0.32694292068481445,1.211857795715332,3.587305784225464
304842.1506928713,-0.02662504091858864,1.099043369293213,0.42750799655914307,0.23579804599285126,2.6900527477264404,0.3126187026500702,1.3988103866577148,4.217911720275879
304842.1546928713,-0.03902560472488403,0.47233784198760986,0.7220230102539062,-0.1143440380692482,0.5850359201431274,1.7281743288040161,0.24538962543010712,0.5896323919296265
304842.1586928713,-0.06456778943538666,0.6618569493293762,1.1764593124389648,0.0022868700325489044,0.5557570457458496,2.7364048957824707,1.2700389623641968,0.5635695457458496
304842.1626928713,-0.07354649901390076,0.7655979990959167,1.3525668382644653,-0.004666074179112911,0.6528123021125793,3.193953514099121,1.4209810495376587,0.5997623205184937
304842.1666928713,-0.047485750168561935,0.23924461007118225,0.8819478154182434,0.5382242202758789,-0.23538297414779663,0.5892355442047119,1.9916813373565674,1.3963674306869507
304842.17069287127,-0.07024793326854706,0.20643210411071777,1.1028779745101929,1.1805349588394165,0.18948861956596375,0.32690462470054626,1.8433252573013306,2.442222833633423
304842.1746928713,-0.08442376554012299,0.12283408641815186,1.1680210828781128,1.8028156757354736,0.7320587635040283,-0.023030007258057594,1.1884243488311768,3.068026065826416
304842.1786928713,-0.09727964550256729,0.13486513495445251,1.3259949684143066,2.0719542503356934,0.8300420045852661,-0.08086676150560379,1.3198132514953613,3.630600929260254
304842.1826928713,-0.02857990562915802,-0.046038009226322174,0.3674176335334778,1.066127061843872,1.344058632850647,0.8007493615150452,-0.19903907179832458,-0.26277586817741394
304842.18669287127,-0.021372828632593155,-0.09305349737405777,0.2865130305290222,1.080391764640808,1.745700716972351,1.7996673583984375,1.1867152452468872,0.438162237405777
304842.1906928713,-0.005769874434918165,-0.13487979769706726,0.1319238245487213,0.8857409358024597,1.8861790895462036,2.672839641571045,2.8190555572509766,1.5045045614242554
304842.1946928713,-0.005890909116715193,-0.15972816944122314,0.1412084549665451,1.0080846548080444,2.1561715602874756,3.1506824493408203,3.249701499938965,1.6441508531570435
304842.1986928713,0.029565338045358658,-0.04634513333439827,-0.16484889388084412,-0.11507362872362137,0.2469789981842041,0.6912835836410522,1.2498282194137573,2.089080333709717
304842.2026928713,0.06909589469432831,0.00765858544036746,-0.09295892715454102,-0.17855721712112427,-0.0728093683719635,0.3032962679862976,0.8287237882614136,1.6450001001358032
304842.2066928713,0.10911275446414948,0.084373340010643,0.025348886847496033,-0.21325652301311493,-0.43183091282844543,-0.17620745301246643,0.16084134578704834,0.7161223292350769
304842.2106928713,0.12447287887334824,0.09608089923858643,0.030455337837338448,-0.2452448308467865,-0.5334048271179199,-0.27649521827697754,0.06964892148971558,0.6927570104598999
304842.2146928713,0.10778230428695679,0.2082194983959198,0.28876805305480957,0.4047187268733978,0.4484315514564514,0.4841277599334717,0.5607413649559021,0.8091313242912292
304842.2186928713,0.18394429981708527,0.42193111777305603,0.6566441655158997,0.9825378060340881,1.2155863046646118,1.4002056121826172,1.7683254480361938,2.2591986656188965
304842.2226928713,0.25059741735458374,0.6278092861175537,1.0143479108810425,1.5427194833755493,1.9538294076919556,2.275428295135498,2.8957712650299072,3.5074472427368164
304842.2266928713,0.2856019139289856,0.7166736125946045,1.1620237827301025,1.7859899997711182,2.268484115600586,2.631118059158325,3.3844714164733887,4.213968276977539
304842.2306928713,0.19192250072956085,0.5023679137229919,0.9047990441322327,1.2109019756317139,1.1605886220932007,1.1650806665420532,0.6118720769882202,0.0004600627871695906
304842.2346928713,0.29712948203086853,0.7604368329048157,1.1963896751403809,1.332561731338501,0.9921642541885376,0.7289281487464905,0.2740524709224701,0.432140976190567
304842.2386928713,0.3801904022693634,0.9532708525657654,1.3545929193496704,1.2130930423736572,0.5454672574996948,0.056909557431936264,-0.06887272000312805,1.3951894044876099
304842.2426928713,0.4327571988105774,1.0920964479446411,1.5284273624420166,1.3767439126968384,0.6031283736228943,0.02664286457002163,-0.15202529728412628,1.3446108102798462
304842.2466928713,0.2587670087814331,0.5771428346633911,0.49222487211227417,0.05158300697803497,-0.26556554436683655,0.30126717686653137,1.3789846897125244,3.7856249809265137
304842.2506928713,0.3803895115852356,0.7234939932823181,0.40574830770492554,-0.03384711593389511,0.14103758335113525,1.2455655336380005,2.2475197315216064,3.0603079795837402
304842.2546928713,0.4694439470767975,0.7813442945480347,0.21009573340415955,-0.10317493975162506,0.7151582837104797,2.1935200691223145,2.785945177078247,1.6578999757766724
304842.2586928713,0.5348533987998962,0.8854044079780579,0.23127023875713348,-0.1338832825422287,0.8117411136627197,2.5759639739990234,3.3248131275177,1.7449793815612793
304842.2626928713,0.29282236099243164,0.31855830550193787,-0.12379559874534607,0.1787320375442505,1.462172508239746,1.204468846321106,-0.1421365886926651,0.40364161133766174
304842.2666928713,0.41458839178085327,0.33181658387184143,-0.12932966649532318,0.7146033048629761,1.8754178285598755,0.8055776357650757,0.157922625541687,2.01761531829834
304842.2706928713,0.49608784914016724,0.2857140302658081,-0.1253882348537445,1.2745447158813477,2.0201966762542725,0.1524156779050827,0.6602457165718079,3.7942099571228027
304842.2746928713,0.5646122097969055,0.3214157521724701,-0.1355036199092865,1.4713536500930786,2.29386043548584,0.1030542179942131,0.6921414732933044,4.423911094665527
304842.27869287133,0.28332027792930603,-0.011538011953234673,0.18868303298950195,1.1409435272216797,0.245304137468338,-0.05984316021203995,1.9204175472259521,0.6446420550346375
304842.2826928713,0.38316234946250916,-0.08311594277620316,0.5162447690963745,1.4022718667984009,0.10289639234542847,1.0443952083587646,2.5552632808685303,0.441679447889328
304842.2866928713,0.44385606050491333,-0.15584778785705566,0.8591998815536499,1.4269620180130005,-0.04466987028717995,2.2955732345581055,2.7248401641845703,0.34952837228775024
304842.2906928713,0.5028746724128723,-0.18186995387077332,0.9826014041900635,1.622065544128418,-0.09929424524307251,2.652724266052246,3.363201856613159,0.29594698548316956
304842.29469287134,0.24550265073776245,-0.08777020126581192,0.888232409954071,0.11309698224067688,0.6697123646736145,1.310011386871338,0.01454320177435875,2.131042718887329
304842.2986928713,0.3579956293106079,-0.11013151705265045,1.358444333076477,-0.004540717229247093,1.4053940773010254,1.377264380455017,0.5118488073348999,3.1788551807403564
304842.3026928713,0.4135488271713257,-0.12217748165130615,1.5600584745407104,-0.0031637470237910748,1.6083515882492065,1.6260888576507568,0.564113438129425,3.712369441986084
304842.3066928713,0.1834285408258438,0.08870901167392731,0.7807111740112305,-0.012388722971081734,1.4306347370147705,-0.26284563541412354,1.8915493488311768,-0.14591576159000397
304842.3106928713,0.25959131121635437,0.19198331236839294,1.0492771863937378,0.15241412818431854,1.9997586011886597,-0.1891952008008957,2.870755195617676,-0.26491042971611023
304842.3146928713,0.2993415296077728,0.21876643598079681,1.2113866806030273,0.1623256504535675,2.339141845703125,-0.26290690898895264,3.4372029304504395,-0.4476967751979828
304842.3186928713,0.14829114079475403,0.424593061208725,0.29639381170272827,1.0558223724365234,0.27648451924324036,1.9093198776245117,-0.0496363490819931,2.697096347808838
304842.32269287127,0.16884243488311768,0.46778544783592224,0.3507571816444397,1.1531935930252075,0.3492594063282013,2.0657379627227783,0.0377848818898201,2.927623987197876
304842.3266928713,0.06841576844453812,0.5055150389671326,-0.12768396735191345,1.2346726655960083,-0.13854575157165527,1.3790651559829712,0.71103435754776,0.9246559739112854
304842.33069287124,0.08620268851518631,0.8051552176475525,-0.22775594890117645,1.7746893167495728,0.027292640879750252,1.6781800985336304,1.701653242111206,0.6380225419998169
304842.33469287126,0.10037881135940552,0.9235848784446716,-0.2683705687522888,2.0446412563323975,0.008091350086033344,1.9684158563613892,1.8821723461151123,0.7894707322120667
304842.3386928713,0.016914241015911102,0.6001211404800415,-0.14029845595359802,0.7613896131515503,0.9928401708602905,-0.3640543818473816,2.320084810256958,0.6659748554229736
304842.3426928712,0.006617031991481781,0.8428176641464233,0.009153258055448532,0.7107838988304138,1.6130132675170898,-0.1866079568862915,2.321958541870117,1.665907859802246
304842.34669287124,-0.017149554565548897,0.8908801078796387,0.3386050760746002,0.2510421872138977,1.8941760063171387,0.5503528714179993,1.0928163528442383,2.3676435947418213
304842.35069287126,-0.042155541479587555,0.8870612382888794,0.7028861045837402,-0.26249662041664124,1.977225661277771,1.537453055381775,-0.30118900537490845,2.5693371295928955
304842.3546928713,-0.05126103386282921,0.9466941952705383,0.8186357021331787,-0.3908807635307312,2.188772678375244,1.7961065769195557,-0.6717572212219238,2.943373441696167
304842.3586928713,-0.04900595545768738,0.4050563871860504,0.8374907374382019,0.044211290776729584,0.08032627403736115,1.8098268508911133,1.2488107681274414,0.403399795293808
304842.36269287125,-0.07440546154975891,0.5409054756164551,1.296322226524353,0.32310113310813904,-0.1589306890964508,2.2816879749298096,2.4109983444213867,1.097727656364441
304842.36669287126,-0.08461552113294601,0.6239845752716064,1.4880897998809814,0.3673635423183441,-0.1945650726556778,2.6845669746398926,2.830646276473999,1.101436734199524
304842.3706928713,-0.05208580195903778,0.15260152518749237,0.8383748531341553,0.8174659013748169,-0.0344243198633194,-0.10553959757089615,1.1855183839797974,3.4425413608551025
304842.37469287124,-0.06343920528888702,0.10689462721347809,0.9699381589889526,1.3892180919647217,0.7078038454055786,-0.10897818207740784,0.7571284174919128,3.028998613357544
304842.37869287125,-0.06574057042598724,0.0278036966919899,0.961299479007721,1.8642845153808594,1.5836405754089355,0.08796827495098114,0.15138287842273712,1.9901050329208374
304842.38269287127,-0.07325264811515808,0.028363022953271866,1.0900075435638428,2.131227493286133,1.818427324295044,0.030741605907678604,0.023615309968590736,2.1935319900512695
304842.3866928713,-0.01826811395585537,-0.08283347636461258,0.2070065140724182,0.8460389375686646,1.3000924587249756,1.410223126411438,0.6687876582145691,0.1642380952835083
304842.39069287124,-0.006212896201759577,-0.11747170984745026,0.09627460688352585,0.692084789276123,1.4768714904785156,2.1229093074798584,1.9524462223052979,1.4056824445724487
304842.39469287125,0.012871846556663513,-0.13354270160198212,-0.06805121153593063,0.35249096155166626,1.3588817119598389,2.506373643875122,3.179729461669922,2.832036018371582
304842.39869287127,0.013941305689513683,-0.15382328629493713,-0.08279314637184143,0.3826775550842285,1.572656273841858,2.9459340572357178,3.6915650367736816,3.283723831176758
304842.4026928713,0.04316182807087898,-0.0021014935337007046,-0.10720081627368927,-0.20612570643424988,-0.023004500195384026,0.22513499855995178,0.5120092630386353,1.2507699728012085
304842.40669287124,0.09341159462928772,0.08894376456737518,-0.01662881299853325,-0.09434923529624939,-0.02787061408162117,0.16767388582229614,0.2506406307220459,0.7189341187477112
304842.41069287126,0.142642542719841,0.19947034120559692,0.13418710231781006,0.09315326809883118,0.05183396488428116,0.14888864755630493,0.0480324849486351,0.05768369510769844
304842.4146928713,0.16296671330928802,0.22883079946041107,0.14394807815551758,0.09255941957235336,-0.007109085563570261,0.10950580984354019,-0.10852634906768799,-0.058180730789899826
304842.4186928713,0.12855233252048492,0.29077720642089844,0.49645504355430603,0.6974866986274719,0.9804950952529907,1.2224453687667847,1.5599932670593262,1.8242672681808472
304842.42269287125,0.21320722997188568,0.5260458588600159,0.9132225513458252,1.30428147315979,1.7384147644042969,1.8639106750488281,3.1525752544403076,2.4501686096191406
304842.42669287126,0.2858700454235077,0.7373084425926208,1.281638741493225,1.8359490633010864,2.3594090938568115,2.257756233215332,4.523220539093018,2.5328290462493896
304842.4306928713,0.32526904344558716,0.8432749509811401,1.471306324005127,2.1144917011260986,2.695692539215088,2.604379892349243,5.439507961273193,3.042523145675659
304842.4346928713,0.24453137814998627,0.594903290271759,0.9668902158737183,0.8683338761329651,0.6032025814056396,0.20857642590999603,-0.14670255780220032,0.18414485454559326
304842.43869287125,0.3829476535320282,0.9231528043746948,1.383317232131958,1.1086037158966064,0.5317854881286621,-0.02935515157878399,-0.21654470264911652,0.6224597096443176
304842.44269287126,0.4400559663772583,1.061049461364746,1.596252202987671,1.2920541763305664,0.6228779554367065,-0.04167008027434349,-0.29490333795547485,0.5433886051177979
304842.4466928713,0.2572798430919647,0.5797522068023682,0.5006000995635986,0.04018563777208328,-0.313448429107666,0.2301347702741623,1.4766392707824707,2.494539737701416
304842.45069287124,0.3768514096736908,0.7471800446510315,0.42219406366348267,-0.09377282112836838,0.061091430485248566,1.3355152606964111,2.3839778900146484,2.256326913833618
304842.45469287125,0.46421289443969727,0.8292258977890015,0.23302599787712097,-0.20660880208015442,0.6250147223472595,2.5118906497955322,2.908632278442383,1.4386173486709595
304842.45869287127,0.5284291505813599,0.9427987337112427,0.26175251603126526,-0.27293914556503296,0.7062663435935974,2.9131624698638916,3.453648567199707,1.5964634418487549
304842.4626928713,0.28393790125846863,0.3257823586463928,-0.08101730048656464,0.22662575542926788,1.4187861680984497,1.2895883321762085,0.03422815352678299,0.41344764828681946
304842.46669287124,0.40931808948516846,0.32696306705474854,-0.13507787883281708,0.8012742400169373,1.8711726665496826,0.8943356275558472,0.13882936537265778,1.5988891124725342
304842.47069287125,0.4981391131877899,0.2660687267780304,-0.15036991238594055,1.4263420104980469,2.027043581008911,0.20747549831867218,0.4789891242980957,2.85669207572937
304842.47469287127,0.5673157572746277,0.298789918422699,-0.19357824325561523,1.6304078102111816,2.3226072788238525,0.2025718241930008,0.4128991663455963,3.29858136177063
304842.4786928713,0.2843157947063446,-0.001855371636338532,0.17149482667446136,1.15742027759552,0.197760671377182,0.2087358832359314,1.6151843070983887,0.6211549639701843
304842.48269287124,0.38611018657684326,-0.06352982670068741,0.5258299112319946,1.4047526121139526,0.00015416363021358848,1.0771386623382568,1.8784141540527344,0.3551613986492157
304842.48669287126,0.4480843245983124,-0.12593518197536469,0.9040918946266174,1.4242970943450928,-0.19343434274196625,2.0020639896392822,1.756054162979126,0.3262503147125244
304842.4906928713,0.5084491968154907,-0.1530701369047165,1.033722162246704,1.6299455165863037,-0.24847622215747833,2.3443403244018555,2.057790756225586,0.12847384810447693
304842.4946928713,0.23753440380096436,-0.0735975131392479,0.8143084049224854,0.1920328289270401,0.517263650894165,1.485191822052002,0.0009900430450215936,3.089493751525879
304842.49869287125,0.30703625082969666,-0.050957366824150085,1.184489369392395,0.052988603711128235,1.3556914329528809,1.1622167825698853,0.7341041564941406,2.7482147216796875
304842.50269287126,0.34061774611473083,-0.0062254322692751884,1.426272988319397,-0.11323419213294983,2.1806788444519043,0.4975326955318451,1.7018351554870605,1.8686140775680542
304842.5066928713,0.38655781745910645,-0.005513819865882397,1.6294364929199219,-0.15099968016147614,2.527982711791992,0.5154998302459717,1.912769079208374,2.113636016845703
304842.5106928713,0.15662093460559845,0.11621224135160446,0.5772243738174438,0.05544359236955643,1.1741031408309937,-0.21390581130981445,1.831183671951294,-0.2457224577665329
304842.51469287125,0.1888674944639206,0.29608583450317383,0.5780444145202637,0.5837563872337341,0.9843274354934692,0.6683382987976074,1.4273123741149902,1.076960802078247
304842.51869287126,0.19581001996994019,0.4784216582775116,0.4678848087787628,1.1823101043701172,0.5483144521713257,1.6804747581481934,0.5491229891777039,2.7312405109405518
304842.5226928713,0.22163495421409607,0.5465492010116577,0.5233759880065918,1.3517738580703735,0.5982002019882202,1.9772143363952637,0.5998418927192688,3.1408820152282715
304842.5266928713,0.07171602547168732,0.4516601264476776,-0.11079870909452438,1.0698617696762085,-0.3421984016895294,1.5638351440429688,0.026222171261906624,1.556078553199768
304842.53069287125,0.07370635122060776,0.7127021551132202,-0.17735852301120758,1.46819269657135,0.06011783331632614,1.3879624605178833,1.146007776260376,0.9498099684715271
304842.53469287127,0.0629916563630104,0.9168157577514648,-0.20352035760879517,1.6821271181106567,0.6475558280944824,0.8188941478729248,2.340883255004883,0.13143807649612427
304842.5386928713,0.07043702900409698,1.0506203174591064,-0.25135520100593567,1.9439877271652222,0.7277318835258484,0.9103308916091919,2.7673280239105225,0.038302481174468994
304842.5426928713,-0.003654040629044175,0.562001645565033,0.08214673399925232,0.3137335181236267,1.4177359342575073,-0.3393430709838867,1.2869974374771118,1.5229215621948242
304842.54669287126,-0.024712782353162766,0.755630373954773,0.3581252992153168,0.17553406953811646,1.8709708452224731,0.4688143730163574,0.9170875549316406,2.3306241035461426
304842.5506928713,-0.045831337571144104,0.8652718663215637,0.6728779077529907,-0.005831902846693993,2.036959171295166,1.4670298099517822,0.35507863759994507,2.7238998413085938
304842.5546928713,-0.05354251340031624,0.987860381603241,0.7684261798858643,-0.0214723851531744,2.3624346256256104,1.6931818723678589,0.3247072696685791,3.260545253753662
304842.5586928713,-0.03909074887633324,0.40540504455566406,0.7711092829704285,-0.09649230539798737,0.2541377544403076,1.5141435861587524,1.0140055418014526,-0.4787469506263733
304842.56269287126,-0.058609552681446075,0.44738250970840454,1.1499180793762207,0.317741334438324,0.017500469461083412,1.5359694957733154,3.122206211090088,0.5856098532676697
304842.5666928713,-0.07275304943323135,0.416026771068573,1.408495545387268,0.8205790519714355,-0.24435113370418549,1.1808713674545288,5.151742458343506,2.1336491107940674
304842.5706928713,-0.08359129726886749,0.4702511131763458,1.6106270551681519,0.9425015449523926,-0.3406277298927307,1.3468050956726074,6.185302734375,2.3885090351104736
304842.5746928713,-0.04557814449071884,0.07084769010543823,0.7066171169281006,1.0872817039489746,0.46184682846069336,-0.1304735243320465,0.7726367712020874,1.626774549484253
304842.57869287126,-0.052717480808496475,0.013372516259551048,0.7544450163841248,1.5440539121627808,1.2339894771575928,0.3940538763999939,0.24478933215141296,1.0991946458816528
304842.5826928713,-0.05365036800503731,-0.06045273691415787,0.6705033183097839,1.8234238624572754,1.9919040203094482,1.1152186393737793,-0.1906062513589859,0.25450173020362854
304842.5866928713,-0.06094149500131607,-0.07044827938079834,0.7588191032409668,2.1082258224487305,2.290193557739258,1.254874348640442,-0.406732439994812,0.14459988474845886
304842.5906928713,0.0007519760401919484,-0.09724307060241699,-0.004606080707162619,0.41130319237709045,1.0214958190917969,1.7183774709701538,1.7672810554504395,1.3649870157241821
304842.59469287127,0.014109707437455654,-0.14135050773620605,-0.06251535564661026,0.3553183376789093,1.1974319219589233,2.2310147285461426,2.9513607025146484,2.787105083465576
304842.5986928713,0.015100385993719101,-0.1693122237920761,-0.07259999215602875,0.41773614287376404,1.3987131118774414,2.5919461250305176,3.4267356395721436,3.2857794761657715
304842.6026928713,0.04558517783880234,-0.017008641734719276,-0.10512076318264008,-0.27588126063346863,-0.1930893212556839,0.08051786571741104,0.3500841557979584,1.1634914875030518
304842.60669287125,0.09440521895885468,0.08381716907024384,0.01878800243139267,-0.12016788125038147,-0.09464165568351746,-0.004242831375449896,0.030004985630512238,0.5996789336204529
304842.61069287127,0.14181043207645416,0.20302140712738037,0.1939193308353424,0.14012938737869263,0.09804833680391312,0.021392399445176125,-0.14948895573616028,-0.016716372221708298
304842.6146928713,0.16171760857105255,0.23362505435943604,0.2165433019399643,0.15939950942993164,0.09875944256782532,-0.045724064111709595,-0.3237450122833252,-0.15151461958885193
304842.6186928713,0.12907853722572327,0.2908409833908081,0.4701026380062103,0.7239508032798767,0.9905726909637451,1.2935155630111694,1.7133227586746216,2.915977954864502
304842.62269287126,0.21305637061595917,0.5254057049751282,0.8890089392662048,1.3109877109527588,1.6806799173355103,2.0263237953186035,2.397916316986084,3.071782350540161
304842.6266928713,0.28441232442855835,0.7363556623458862,1.275785207748413,1.8127503395080566,2.2009525299072266,2.4550609588623047,2.6350455284118652,2.577760934829712
304842.6306928713,0.3238384425640106,0.8405400514602661,1.4569470882415771,2.0706887245178223,2.5492255687713623,2.8687565326690674,3.0649356842041016,2.9490528106689453
304842.6346928713,0.21315796673297882,0.5741063952445984,0.8618132472038269,0.9140675663948059,0.7740746140480042,0.3822579085826874,-0.08538167923688889,-0.22261887788772583
304842.63869287126,0.327393114566803,0.8172755241394043,1.0957021713256836,0.8660026788711548,0.4001184403896332,0.21618908643722534,0.22227898240089417,0.6980190277099609
304842.6426928713,0.4169721305370331,0.9806467890739441,1.171329140663147,0.6279578804969788,-0.13865181803703308,0.029635319486260414,0.7700508832931519,1.9202746152877808
304842.6466928713,0.4743739068508148,1.1178783178329468,1.3332288265228271,0.7086840867996216,-0.1997804045677185,-0.008698252961039543,0.8035321235656738,2.2174625396728516
304842.6506928713,0.26911064982414246,0.5340638756752014,0.2973785102367401,-0.21846455335617065,-0.12240833789110184,1.0136504173278809,1.7839103937149048,1.4637585878372192
304842.65469287126,0.3942813575267792,0.6567227840423584,0.18802779912948608,-0.215919628739357,0.5935012698173523,1.818079948425293,1.8347824811935425,0.919917106628418
304842.6586928713,0.4849790632724762,0.6897127628326416,0.019897760823369026,-0.134025439620018,1.4291362762451172,2.45609450340271,1.425311803817749,0.17495077848434448
304842.6626928713,0.5501284599304199,0.7792986035346985,0.004319518804550171,-0.1782132238149643,1.658105731010437,2.8261122703552246,1.6543010473251343,-0.01608455739915371
304842.6666928713,0.28856033086776733,0.23532791435718536,-0.1609528362751007,0.551113486289978,1.4581425189971924,0.5230424404144287,-0.5131593942642212,1.2424371242523193
304842.67069287127,0.4052552580833435,0.20835451781749725,-0.10782288014888763,1.1386222839355469,1.5304514169692993,0.08376967161893845,0.49373048543930054,2.252466917037964
304842.6746928713,0.4841354787349701,0.13321824371814728,-0.00828207191079855,1.684705138206482,1.2948908805847168,-0.4056355655193329,1.8061223030090332,2.957671880722046
304842.6786928713,0.5494362115859985,0.146506205201149,-0.006120042409747839,1.9348543882369995,1.4693201780319214,-0.5659988522529602,2.0901129245758057,3.505110502243042
304842.6826928713,0.2705927789211273,-0.06537044048309326,0.3672167658805847,1.074575424194336,-0.180106058716774,0.7089843153953552,1.9466575384140015,-0.3332699239253998
304842.68669287127,0.3642095625400543,-0.11739907413721085,0.7698180675506592,1.1079981327056885,-0.13421329855918884,1.631509780883789,1.3447569608688354,0.37074634432792664
304842.6906928713,0.4191843867301941,-0.16101744771003723,1.1564019918441772,0.9383324384689331,0.05014155060052872,2.4852347373962402,0.2694600820541382,1.3914026021957397
304842.6946928713,0.475301057100296,-0.18913328647613525,1.3202329874038696,1.064574122428894,0.03679748624563217,2.8580081462860107,0.24331098794937134,1.5561933517456055
304842.6986928713,0.2896367311477661,-0.07606996595859528,1.1739189624786377,-0.24285760521888733,1.5575605630874634,0.8957242369651794,0.4662677049636841,2.740999937057495
304842.7026928713,0.3266851305961609,-0.08471009880304337,1.3311917781829834,-0.24330295622348785,1.6921758651733398,1.088007926940918,0.4230695962905884,3.157829999923706
304842.7066928713,0.23472711443901062,0.09720485657453537,1.0202934741973877,-0.12305395305156708,1.7643334865570068,-0.27402910590171814,4.640732288360596,-0.1995166540145874
304842.71069287125,0.26564446091651917,0.10236027836799622,1.161212682723999,-0.14509035646915436,1.9932113885879517,-0.3405575156211853,5.125456809997559,-0.1733606457710266
304842.71469287126,0.135206401348114,0.20332902669906616,0.430097758769989,0.3526853919029236,0.7906835675239563,0.4462399184703827,2.01118803024292,0.6227195858955383
304842.7186928712,0.15825942158699036,0.4102573096752167,0.3503716289997101,0.926446259021759,0.45010045170783997,1.4320313930511475,0.9220096468925476,1.9920610189437866
304842.72269287123,0.1587388813495636,0.6048853397369385,0.17755545675754547,1.4972530603408813,-0.08529165387153625,2.422316551208496,-0.3720514178276062,3.2362020015716553
304842.72669287125,0.17950280010700226,0.693589448928833,0.19387120008468628,1.7206512689590454,-0.10456003993749619,2.7977960109710693,-0.6139901876449585,3.7976181507110596
304842.73069287126,0.04756375402212143,0.5810341835021973,-0.12100391089916229,1.111614465713501,0.2079000025987625,0.7865875363349915,1.4193655252456665,-0.17916901409626007
304842.7346928712,0.05568534508347511,0.9100549221038818,-0.19096916913986206,1.515028953552246,0.7024915814399719,0.7679705023765564,2.692495584487915,-0.7792236804962158
304842.73869287124,0.0652613714337349,1.0500648021697998,-0.22054217755794525,1.74399733543396,0.794090986251831,0.8949936032295227,3.099916934967041,-1.0307954549789429
304842.74269287125,0.0023537680972367525,0.6315487027168274,0.026813961565494537,0.3509901762008667,1.438620924949646,-0.47558706998825073,1.163184642791748,2.576873779296875
304842.7466928712,-0.01284030731767416,0.8451489210128784,0.2606237828731537,0.27074185013771057,1.9321991205215454,0.11989257484674454,0.8682874441146851,3.109602451324463
304842.7506928712,-0.03456595912575722,0.8344887495040894,0.6176166534423828,0.045744094997644424,1.7545686960220337,1.264632225036621,0.2491709440946579,2.277941942214966
304842.75469287124,-0.05559399351477623,0.7738509774208069,0.9876447916030884,-0.1499204933643341,1.2978090047836304,2.455002784729004,-0.040456876158714294,0.9860787987709045
304842.75869287126,-0.06332124024629593,0.806023120880127,1.1299567222595215,-0.22167137265205383,1.3269703388214111,2.8664307594299316,-0.3212144672870636,0.8539012670516968
304842.76269287127,-0.056905437260866165,0.3146761655807495,0.9358118772506714,0.44103845953941345,-0.06731672585010529,1.0011647939682007,2.012485980987549,0.449020117521286
304842.7666928712,-0.08842834830284119,0.4088006317615509,1.403273344039917,0.9067702293395996,-0.09793593734502792,1.0565932989120483,3.1899962425231934,1.7586708068847656
304842.77069287124,-0.10131204128265381,0.47311118245124817,1.6315995454788208,1.0254111289978027,-0.15190818905830383,1.248231053352356,3.7392892837524414,1.9974935054779053
304842.77469287126,-0.0468578077852726,0.06939428299665451,0.7266760468482971,1.1199384927749634,0.48282310366630554,-0.13541676104068756,0.3171798884868622,1.8024110794067383
304842.7786928712,-0.054509177803993225,-0.0006177024333737791,0.769207775592804,1.489330530166626,1.2740204334259033,0.4641489088535309,0.12165816128253937,1.1370145082473755
304842.78269287123,-0.05311674624681473,-0.08720526099205017,0.6703153252601624,1.671403408050537,2.0678558349609375,1.2671805620193481,0.02405838668346405,-0.0012175280135124922
304842.78669287125,-0.059658803045749664,-0.10555620491504669,0.7540242075920105,1.9165370464324951,2.368847131729126,1.4179835319519043,-0.036522697657346725,-0.08548464626073837
304842.79069287126,-0.0015361943515017629,-0.10961361974477768,0.03397144004702568,0.4996377229690552,1.2522424459457397,1.7468750476837158,1.7449241876602173,1.2182419300079346
304842.7946928712,0.02073315903544426,-0.12270583212375641,-0.08394590020179749,0.3016497492790222,1.038941502571106,1.7854782342910767,2.2897331714630127,2.388972520828247
304842.79869287123,0.04730691760778427,-0.11375311762094498,-0.19319681823253632,0.025202397257089615,0.5410115122795105,1.4483402967453003,2.403562545776367,3.28029465675354
304842.80269287125,0.05445889011025429,-0.12950541079044342,-0.24888838827610016,-0.01882655918598175,0.6027231216430664,1.6541931629180908,2.7957141399383545,3.837651252746582
304842.80669287127,0.06318196654319763,0.031432222574949265,0.005281709600239992,-0.15654468536376953,-0.27430710196495056,-0.2578151524066925,-0.039019230753183365,-0.03022688999772072
304842.8106928712,0.12158798426389694,0.16887831687927246,0.22291062772274017,0.13871043920516968,0.13866156339645386,0.11626912653446198,0.4404405951499939,0.5254104733467102
304842.81469287124,0.17667923867702484,0.32284480333328247,0.4799115061759949,0.5473296642303467,0.687763512134552,0.7397181391716003,1.0836684703826904,1.3447186946868896
304842.81869287125,0.201429083943367,0.3694970905780792,0.5449580550193787,0.6171903014183044,0.7642681002616882,0.7963171601295471,1.1996474266052246,1.4765026569366455
304842.82269287127,0.1503724604845047,0.3726308345794678,0.6573187708854675,0.9761838316917419,1.250868320465088,1.638610601425171,1.7312628030776978,2.132962465286255
304842.8266928712,0.2436864972114563,0.6378056406974792,1.127106785774231,1.4669930934906006,1.7409944534301758,1.9479563236236572,1.7830451726913452,1.7857623100280762
304842.83069287124,0.3218274712562561,0.866705060005188,1.518081784248352,1.820097804069519,1.9927701950073242,1.827120065689087,1.3924102783203125,0.9177720546722412
304842.83469287126,0.36635923385620117,0.9878219366073608,1.7382608652114868,2.0876476764678955,2.3294599056243896,2.1030633449554443,1.6195741891860962,1.0235228538513184
304842.8386928713,0.22864000499248505,0.5714724063873291,0.8127622604370117,0.6628533005714417,0.30023375153541565,-0.21913188695907593,-0.2100192755460739,0.4480019509792328
304842.8426928712,0.33994466066360474,0.8006740808486938,0.9155561923980713,0.4599565863609314,0.03860616311430931,0.0748339518904686,1.6783125400543213,1.8787760734558105
304842.84669287124,0.4242013990879059,0.9534636735916138,0.86924147605896,0.09293262660503387,-0.2768939137458801,0.5573698878288269,4.059258460998535,3.376657247543335
304842.85069287126,0.48221150040626526,1.080413579940796,0.9839186668395996,0.09783153980970383,-0.3473353087902069,0.6130098700523376,4.627117156982422,3.884584426879883
304842.8546928713,0.31086885929107666,0.4838872253894806,0.09981013089418411,-0.15055878460407257,0.7952249050140381,1.5285310745239258,2.462317705154419,0.0713224783539772
304842.85869287123,0.476358026266098,0.675565779209137,0.03973096236586571,-0.06504784524440765,1.621569037437439,2.314800500869751,2.1022932529449463,-0.5112781524658203
304842.86269287125,0.5474710464477539,0.7822636365890503,0.05056754872202873,-0.07186874747276306,1.8374658823013306,2.6897594928741455,2.359113931655884,-0.6980482339859009
304842.86669287126,0.29815083742141724,0.2350161224603653,-0.12436704337596893,0.5527305603027344,1.3069767951965332,0.5621508955955505,-0.10728435963392258,1.628971815109253
304842.8706928712,0.4130970239639282,0.21259894967079163,-0.055703360587358475,1.1536970138549805,1.4989829063415527,0.14440326392650604,0.7331564426422119,2.4740641117095947
304842.87469287124,0.48827284574508667,0.14201140403747559,0.05237312614917755,1.726322889328003,1.3920600414276123,-0.33586785197257996,1.8625224828720093,3.0170905590057373
304842.87869287125,0.5530056953430176,0.15943694114685059,0.057656094431877136,1.9641728401184082,1.6099764108657837,-0.4932701587677002,2.115222215652466,3.5603461265563965
304842.88269287127,0.27831870317459106,-0.031095487996935844,0.35842108726501465,1.0702613592147827,-0.19271798431873322,0.7728514075279236,1.9125360250473022,-0.5851490497589111
304842.8866928712,0.3724016547203064,-0.0820806547999382,0.7689708471298218,1.085097074508667,-0.13175411522388458,1.8753547668457031,1.2067956924438477,0.89229816198349
304842.89069287124,0.42707446217536926,-0.12569831311702728,1.1761125326156616,0.892575740814209,0.06516015529632568,2.9013028144836426,-0.0389709509909153,3.1208274364471436
304842.89469287125,0.4836188852787018,-0.1504383385181427,1.3345205783843994,1.0070053339004517,0.048421710729599,3.402898073196411,-0.022455185651779175,3.351069211959839
304842.89869287127,0.21586038172245026,-0.07222309708595276,0.9101991057395935,-0.09166373312473297,0.9876479506492615,0.8733774423599243,0.24517109990119934,3.1508030891418457
304842.9026928712,0.2753499448299408,-0.01065562479197979,1.1804559230804443,-0.18721827864646912,1.754185676574707,0.31221437454223633,1.5562537908554077,1.9792028665542603
304842.90669287124,0.3032609820365906,0.07176030427217484,1.3132171630859375,-0.23629745841026306,2.340640068054199,-0.43671491742134094,3.0125296115875244,0.21780231595039368
304842.91069287126,0.34347397089004517,0.08022990822792053,1.4910820722579956,-0.3049471974372864,2.7393035888671875,-0.5709413290023804,3.458292007446289,0.16921071708202362
304842.9146928713,0.1350235790014267,0.20562271773815155,0.4376136362552643,0.3964809477329254,0.8264602422714233,0.6134533882141113,1.218664526939392,0.6228548288345337
304842.91869287123,0.15803645551204681,0.4084811508655548,0.3656161427497864,0.9372280836105347,0.4743253290653229,1.653035044670105,0.6623795628547668,2.090930938720703
304842.92269287125,0.15854421257972717,0.6013224124908447,0.2104073464870453,1.4604765176773071,-0.07571137696504593,2.65045428276062,-0.11473675817251205,3.353896141052246
304842.92669287126,0.1791914999485016,0.6860663294792175,0.225007101893425,1.678318977355957,-0.10092123597860336,3.089838981628418,-0.17268520593643188,4.068535804748535
304842.9306928713,0.05129607394337654,0.5256896018981934,-0.1305992305278778,1.1856061220169067,0.11182689666748047,1.1109042167663574,1.1540194749832153,0.05242349952459335
304842.93469287123,0.045230280607938766,0.7855391502380371,-0.16308388113975525,1.2830960750579834,0.7431550025939941,0.6706796288490295,2.2431106567382812,0.18273712694644928
304842.93869287125,0.0285168569535017,0.9755076766014099,-0.16512933373451233,1.1583408117294312,1.4572283029556274,0.049158114939928055,3.0508780479431152,0.6250436305999756
304842.94269287126,0.031853657215833664,1.1129952669143677,-0.19794724881649017,1.3060530424118042,1.6750024557113647,-0.027214238420128822,3.6437740325927734,0.6080424785614014
304842.9466928713,-0.014908903278410435,0.5679709315299988,0.22890278697013855,0.004550049547106028,1.532052755355835,0.32585957646369934,0.36522039771080017,2.210071325302124
304842.95069287124,-0.04057092219591141,0.7395088076591492,0.5836204886436462,-0.1592034548521042,1.6275568008422852,1.3009328842163086,0.2592546343803406,2.073059320449829
304842.95469287125,-0.0651584193110466,0.8249778747558594,0.9415278434753418,-0.31260591745376587,1.407956600189209,2.2928593158721924,0.21883638203144073,1.3068102598190308
304842.95869287127,-0.07581394165754318,0.9395803213119507,1.0793663263320923,-0.3723564147949219,1.6083582639694214,2.6845710277557373,0.10845506191253662,1.485486626625061
304842.9626928713,-0.04216612130403519,0.3228852152824402,0.8292588591575623,0.22844257950782776,-0.12307407706975937,1.354156255722046,1.784474492073059,-0.02751312591135502
304842.96669287124,-0.06829341500997543,0.3248234689235687,1.1485881805419922,0.7426792979240417,-0.02112572453916073,0.8329156041145325,2.3059208393096924,1.5518608093261719
304842.97069287125,-0.08933652937412262,0.264669805765152,1.350140929222107,1.2774887084960938,0.1595165878534317,-0.007681660354137421,2.3757150173187256,3.2516062259674072
304842.97469287127,-0.10307681560516357,0.2972390353679657,1.5299263000488281,1.4700663089752197,0.16025999188423157,-0.050498735159635544,2.8058922290802,3.828441858291626
304842.9786928713,-0.03700615465641022,0.01108761876821518,0.5598384737968445,1.1701030731201172,1.0281800031661987,0.21430540084838867,-0.08636006712913513,0.7683764696121216
304842.98269287124,-0.043009430170059204,-0.06088980287313461,0.5080382227897644,1.4050424098968506,1.7525047063827515,1.1778314113616943,0.45076507329940796,0.4066857099533081
304842.98669287126,-0.04092279076576233,-0.1478203535079956,0.3402397632598877,1.4251638650894165,2.304255247116089,2.2724626064300537,1.2839570045471191,0.13442420959472656
304842.9906928713,-0.04662715271115303,-0.17007698118686676,0.3823484778404236,1.640854835510254,2.6477608680725098,2.6174705028533936,1.4246578216552734,-0.021374670788645744
304842.9946928713,0.022684544324874878,-0.09022877365350723,-0.1087505966424942,0.04975633695721626,0.5669535398483276,1.1877158880233765,1.6775709390640259,2.06885027885437
304842.99869287125,0.044748980551958084,-0.12929053604602814,-0.21125872433185577,-0.15505242347717285,0.4940486550331116,1.4062297344207764,2.2604196071624756,2.9030299186706543
304843.00269287126,0.05151720345020294,-0.15418340265750885,-0.2569575011730194,-0.18140821158885956,0.5856065154075623,1.6562472581863403,2.6744821071624756,3.41469669342041
304843.0066928713,0.06651432067155838,0.043807536363601685,-0.027000417932868004,-0.11682933568954468,-0.1855216920375824,-0.28369447588920593,-0.10788633674383163,0.06695015728473663
304843.01069287123,0.12419869005680084,0.18198435008525848,0.18854661285877228,0.1962977647781372,0.2076769471168518,0.17958956956863403,0.27547091245651245,0.8243585228919983
304843.01469287125,0.17815802991390228,0.3332796096801758,0.4570154547691345,0.606831431388855,0.7384331226348877,0.8185710310935974,0.9277420043945312,2.014529228210449
304843.01869287126,0.20315484702587128,0.3816724419593811,0.5204352140426636,0.6936690211296082,0.828886091709137,0.8954050540924072,0.9615061283111572,2.0623626708984375
304843.0226928713,0.15052182972431183,0.3688284754753113,0.6844787001609802,1.0071690082550049,1.390954852104187,1.5410363674163818,2.089759349822998,4.217673301696777
304843.02669287124,0.2447190135717392,0.6161514520645142,1.1266168355941772,1.548528790473938,1.7771868705749512,1.8385016918182373,2.3773107528686523,2.917130947113037
304843.03069287125,0.3241109848022461,0.825838029384613,1.4756020307540894,1.9464709758758545,1.9038423299789429,1.7889387607574463,2.2053492069244385,0.8470163941383362
304843.03469287127,0.3690069019794464,0.9399742484092712,1.694520354270935,2.2285189628601074,2.181551456451416,2.0823028087615967,2.6810872554779053,0.8063985705375671
304843.0386928713,0.23286935687065125,0.6062831878662109,0.8043448328971863,0.6645095348358154,0.2800378203392029,-0.019987767562270164,-0.3634105324745178,0.28279197216033936
304843.04269287124,0.34778738021850586,0.8111682534217834,0.8921687602996826,0.4869815409183502,0.005295739509165287,0.16468830406665802,0.5853413343429565,1.9716285467147827
304843.04669287126,0.433559775352478,0.9253939390182495,0.8433755040168762,0.16729974746704102,-0.3340718746185303,0.5020296573638916,1.7768162488937378,3.692331552505493
304843.0506928713,0.49364539980888367,1.0488660335540771,0.9523001313209534,0.16599254310131073,-0.42491614818573,0.4985409080982208,2.090131998062134,4.3550615310668945
304843.0546928713,0.2756103277206421,0.4678196907043457,0.11404529213905334,-0.22345884144306183,0.42876195907592773,1.591781735420227,1.5614176988601685,0.2882007658481598
304843.05869287124,0.4018027186393738,0.5527206659317017,-0.04576902836561203,0.017210405319929123,1.3074402809143066,2.037365436553955,1.0275468826293945,0.12012637406587601
304843.06269287126,0.4918087422847748,0.5578553676605225,-0.2312624752521515,0.3635331988334656,2.2164249420166016,2.1076602935791016,0.06251247227191925,0.2174825221300125
304843.0666928713,0.5605172514915466,0.6318638324737549,-0.27885040640830994,0.41977906227111816,2.5425679683685303,2.430790662765503,0.020359758287668228,0.07625701278448105
304843.0706928713,0.2904917895793915,0.1474262773990631,-0.12105008959770203,0.9207642674446106,1.1979671716690063,-0.03634370118379593,0.20303063094615936,2.2854726314544678
304843.07469287125,0.4029353857040405,0.10847651213407516,0.048948369920253754,1.4674830436706543,1.0013736486434937,0.0503508485853672,1.5375277996063232,2.358476400375366
304843.07869287126,0.4778837263584137,0.039965469390153885,0.2680492103099823,1.8709814548492432,0.5118624567985535,0.2572675943374634,2.9212639331817627,1.7309778928756714
304843.0826928713,0.5416735410690308,0.039272740483284,0.30320069193840027,2.1569929122924805,0.5702170729637146,0.2438356876373291,3.4152698516845703,1.9907277822494507
304843.0866928713,0.26130038499832153,-0.10099989175796509,0.540194034576416,0.8061574697494507,-0.10984565317630768,1.4054243564605713,1.002112627029419,0.10451303422451019
304843.09069287125,0.3473401367664337,-0.13564038276672363,0.9878973364830017,0.7093836069107056,0.2333552986383438,1.9735260009765625,0.5381144881248474,1.3633899688720703
304843.09469287127,0.3969905376434326,-0.15110471844673157,1.387078881263733,0.4564319849014282,0.7259012460708618,2.253183603286743,-0.0018360009416937828,2.8128726482391357
304843.0986928713,0.45011720061302185,-0.17416971921920776,1.5880135297775269,0.49669283628463745,0.8155091404914856,2.620321273803711,-0.1764492243528366,3.2896828651428223
304843.1026928713,0.1960897445678711,-0.01853417232632637,0.8566026091575623,-0.19911342859268188,1.280117392539978,0.09274628013372421,1.1078259944915771,1.199041724205017
304843.10669287125,0.24664908647537231,0.07549542188644409,1.016150951385498,-0.08423257619142532,1.8187602758407593,-0.03946920856833458,2.1181178092956543,0.5600114464759827
304843.11069287127,0.2669609785079956,0.19004888832569122,1.0222409963607788,0.0993243008852005,2.1170544624328613,-0.09487024694681168,2.933466672897339,-0.1587061583995819
304843.1146928713,0.3024490177631378,0.21837373077869415,1.1562412977218628,0.09347448498010635,2.456055164337158,-0.19579042494297028,3.4131109714508057,-0.34405428171157837
304843.1186928713,0.11323647201061249,0.2900935113430023,0.24652668833732605,0.7016570568084717,0.2407757192850113,1.2954806089401245,0.16013427078723907,2.0551531314849854
304843.12269287126,0.1290624737739563,0.5318944454193115,0.12996496260166168,1.3007574081420898,0.07500364631414413,2.0083577632904053,0.10478542000055313,2.628403663635254
304843.1266928713,0.12546411156654358,0.7544001340866089,-0.042172808200120926,1.8227412700653076,-0.09789571911096573,2.453556537628174,0.22026419639587402,2.5934057235717773
304843.1306928713,0.14175602793693542,0.8581093549728394,-0.05912810191512108,2.0951433181762695,-0.13429827988147736,2.8177785873413086,0.15854182839393616,3.0892484188079834
304843.1346928713,0.03099566139280796,0.5581653118133545,-0.11482803523540497,0.9280040860176086,0.4523368179798126,0.25301599502563477,1.8783378601074219,-0.3182300627231598
304843.13869287126,0.020157981663942337,0.8146913051605225,-0.05696728453040123,0.8737614154815674,1.241226077079773,-0.06936650723218918,2.3233916759490967,1.8136409521102905
304843.1426928713,0.002529375022277236,0.9995684027671814,0.061584118753671646,0.6188985109329224,2.042665958404541,-0.3684235215187073,2.2210984230041504,4.659364700317383
304843.1466928713,0.0009115674765780568,1.1375378370285034,0.06541050225496292,0.698539674282074,2.337092638015747,-0.4980173110961914,2.594606876373291,5.26726770401001
304843.1506928713,-0.03419204428792,0.5498934984207153,0.5573387145996094,-0.11033713817596436,1.167858362197876,1.373760461807251,-0.04900034889578819,1.2687604427337646
304843.15469287126,-0.056187551468610764,0.7751284837722778,0.983892560005188,-0.1768188774585724,1.3802324533462524,2.519045829772949,0.2905882000923157,0.9193031191825867
304843.1586928713,-0.06380978226661682,0.8927359580993652,1.1268537044525146,-0.20717856287956238,1.619448184967041,2.9004995822906494,0.2849586009979248,1.1163665056228638
304843.1626928713,-0.055711206048727036,0.31723716855049133,0.7961825728416443,0.2505405843257904,-0.24659080803394318,1.2863479852676392,1.794351577758789,0.4026089310646057
304843.16669287125,-0.07515328377485275,0.33021602034568787,1.1545261144638062,0.8080927729606628,-0.13860520720481873,0.8026912808418274,2.8491568565368652,1.618970274925232
304843.17069287127,-0.08467956632375717,0.28423961997032166,1.3979949951171875,1.41343355178833,0.12119381129741669,0.00897285621613264,3.533883810043335,2.8883161544799805
304843.1746928713,-0.09747985750436783,0.3195922374725342,1.5948340892791748,1.6106250286102295,0.13225293159484863,-0.026083778589963913,4.242153167724609,3.4002254009246826
304843.1786928713,-0.037030309438705444,0.008276153355836868,0.5605126619338989,1.15028715133667,1.0133366584777832,0.037751875817775726,-0.27714818716049194,0.7923489212989807
304843.18269287125,-0.038034822791814804,-0.0466776080429554,0.5028741359710693,1.393907070159912,1.852554202079773,1.1058801412582397,0.3103683888912201,0.6547455787658691
304843.18669287127,-0.032681431621313095,-0.10837585479021072,0.3253283202648163,1.4305247068405151,2.542433023452759,2.3270814418792725,1.1669936180114746,0.5105913281440735
304843.1906928713,-0.03694342076778412,-0.1270698755979538,0.3636905550956726,1.6369503736495972,2.9453389644622803,2.6903433799743652,1.3110181093215942,0.4816310703754425
304843.1946928713,0.00844526942819357,-0.11683915555477142,-0.11901091039180756,0.17182660102844238,0.7449832558631897,1.2763365507125854,2.1255733966827393,2.1563098430633545
304843.19869287126,0.03956753760576248,-0.104005828499794,-0.20523741841316223,-0.040027961134910583,0.43235287070274353,1.0662894248962402,1.8965716361999512,2.4573190212249756
304843.2026928713,0.07403133064508438,-0.06198221445083618,-0.25715768337249756,-0.2723037302494049,-0.045103106647729874,0.5647948384284973,1.150619626045227,2.178436756134033
304843.2066928713,0.08537083119153976,-0.07117591798305511,-0.3054778277873993,-0.3454763889312744,-0.082163505256176,0.5936084389686584,1.302409052848816,2.5341804027557373
304843.2106928713,0.08744601160287857,0.1264580935239792,0.10284295678138733,0.03984568640589714,0.08489738404750824,-0.002558010397478938,0.01934976875782013,-0.26109638810157776
304843.21469287126,0.15427367389202118,0.29683399200439453,0.4309583604335785,0.552291214466095,0.7156328558921814,0.7565508484840393,1.03391432762146,1.0664379596710205
304843.2186928713,0.2144208550453186,0.4678953289985657,0.7941710352897644,1.1233184337615967,1.4371248483657837,1.6430078744888306,2.234234571456909,2.688922166824341
304843.2226928713,0.24425570666790009,0.5350208282470703,0.9083554148674011,1.293269157409668,1.65982186794281,1.8966431617736816,2.554048538208008,3.091392993927002
304843.2266928713,0.17004859447479248,0.4492378532886505,0.8136633634567261,1.0484355688095093,1.5201671123504639,1.6118485927581787,1.4113876819610596,1.5542088747024536
304843.23069287126,0.26798415184020996,0.7107078433036804,1.169228196144104,1.4096249341964722,1.6375524997711182,1.3253028392791748,0.8840779066085815,0.8208844661712646
304843.2346928713,0.3477337956428528,0.9130502939224243,1.393900990486145,1.5882996320724487,1.402288556098938,0.6572080254554749,-0.04461284354329109,-0.10028422623872757
304843.2386928713,0.39564651250839233,1.0453649759292603,1.5949283838272095,1.824884057044983,1.6021029949188232,0.7423310875892639,-0.06905442476272583,-0.28731051087379456
304843.2426928713,0.24235855042934418,0.5746349692344666,0.6918215751647949,0.3256525993347168,-0.043847810477018356,-0.07530273497104645,0.536270260810852,1.6114094257354736
304843.24669287127,0.36232104897499084,0.7778517007827759,0.7024062275886536,0.10023882985115051,0.04201526567339897,0.6030617952346802,1.6743966341018677,2.463242292404175
304843.2506928713,0.45254451036453247,0.8974640369415283,0.5783282518386841,-0.1847589612007141,0.17526544630527496,1.4285318851470947,2.7542378902435303,2.863037109375
304843.2546928713,0.5139962434768677,1.020048975944519,0.6483586430549622,-0.2480228841304779,0.19115546345710754,1.6382780075073242,3.2597315311431885,3.4405906200408936
304843.2586928713,0.2842978537082672,0.40676987171173096,-0.07009276002645493,-0.014253412373363972,0.9387230277061462,1.866270899772644,0.785575807094574,-0.45328909158706665
304843.26269287127,0.40339595079421997,0.44623202085494995,-0.12518198788166046,0.390468955039978,1.7290431261062622,1.782225251197815,0.4167199730873108,1.533982276916504
304843.2666928713,0.484131395816803,0.41435325145721436,-0.15047526359558105,0.8892077803611755,2.425935983657837,1.2788701057434082,-0.009898054413497448,4.222720623016357
304843.2706928713,0.5503281950950623,0.4674350917339325,-0.17703887820243835,1.0077910423278809,2.796558141708374,1.4312164783477783,-0.1549675315618515,4.697478294372559
304843.2746928713,0.28464093804359436,0.07697676867246628,-0.02737748995423317,1.0744205713272095,0.7283347845077515,-0.14360499382019043,1.2200285196304321,1.706296682357788
304843.2786928713,0.39318975806236267,0.006556077394634485,0.24109891057014465,1.5075327157974243,0.4267595112323761,0.39990511536598206,2.1753246784210205,1.3035144805908203
304843.2826928713,0.46054112911224365,-0.08572646975517273,0.5574169754981995,1.7635881900787354,-0.052690666168928146,1.1819250583648682,2.894441604614258,0.45236897468566895
304843.2866928713,0.5230213403701782,-0.10012396425008774,0.6402044296264648,1.9978641271591187,-0.06323149800300598,1.3088774681091309,3.4163031578063965,0.47896242141723633
304843.2906928713,0.2470424622297287,-0.11710303276777267,0.6936808824539185,0.5278005599975586,0.03603522852063179,1.8402166366577148,0.09038449078798294,0.838485836982727
304843.2946928713,0.32567450404167175,-0.13936899602413177,1.1093827486038208,0.35589465498924255,0.6627797484397888,1.8846755027770996,0.2583499848842621,1.8308172225952148
304843.2986928713,0.36835503578186035,-0.13742931187152863,1.4539432525634766,0.07712431997060776,1.411326289176941,1.4629124402999878,0.5867806673049927,2.625537395477295
304843.3026928713,0.41744181513786316,-0.15963490307331085,1.6572604179382324,0.06401558220386505,1.6191589832305908,1.6670794486999512,0.5940006375312805,3.0807759761810303
304843.3066928713,0.17763987183570862,0.039690326899290085,0.805543065071106,-0.14270885288715363,1.4541525840759277,-0.21409057080745697,3.0445759296417236,0.20406273007392883
304843.3106928713,0.2193334847688675,0.17555220425128937,0.8598407506942749,0.17270685732364655,1.541077733039856,0.24440090358257294,3.852768659591675,0.532771110534668
304843.3146928713,0.23315592110157013,0.32567298412323,0.766318678855896,0.5808576345443726,1.3407400846481323,0.8901650309562683,3.6297340393066406,1.092512845993042
304843.3186928713,0.2641369700431824,0.3719974160194397,0.8607271313667297,0.6638707518577576,1.530686378479004,1.00538170337677,4.246485710144043,1.1215530633926392
304843.3226928713,0.09023918956518173,0.4462563991546631,0.002951057394966483,1.0688127279281616,-0.2155802696943283,1.9044294357299805,-0.20147205889225006,1.808791160583496
304843.3266928713,0.12051732838153839,0.7388823628425598,-0.0923837423324585,1.6878864765167236,-0.4552616775035858,2.8257248401641846,0.15485061705112457,2.1539242267608643
304843.3306928713,0.13912871479988098,0.8447393774986267,-0.10539605468511581,1.9470160007476807,-0.5635123252868652,3.314296245574951,0.11357253044843674,2.5748109817504883
304843.3346928713,0.032977718859910965,0.5578801035881042,-0.07785798609256744,0.9923685193061829,0.5047004222869873,0.24485689401626587,1.801159143447876,-0.31042540073394775
304843.3386928713,0.021164964884519577,0.8160769939422607,-0.002992849564179778,0.9379447102546692,1.2635396718978882,0.0486496165394783,2.2647650241851807,0.8928081393241882
304843.3426928713,0.0008055700454860926,0.9958238005638123,0.10664717108011246,0.6761044859886169,1.9737753868103027,-0.07253742218017578,2.205289602279663,2.4864630699157715
304843.3466928713,0.00037095515290275216,1.1392091512680054,0.11678940802812576,0.7546648979187012,2.308011054992676,-0.13975581526756287,2.564009428024292,2.8106954097747803
304843.3506928713,-0.025905637070536613,0.5409938097000122,0.43141403794288635,-0.16761110723018646,1.2780705690383911,0.9779276251792908,-0.043123483657836914,1.9237115383148193
304843.3546928713,-0.050169676542282104,0.6590616703033447,0.8560457825660706,-0.11493222415447235,1.0587122440338135,1.8933175802230835,0.4737262427806854,1.1179474592208862
304843.3586928713,-0.07169123739004135,0.6939353346824646,1.2517023086547852,0.025374604389071465,0.5848840475082397,2.6828105449676514,1.232499122619629,-0.09061118215322495
304843.3626928713,-0.08124326169490814,0.7840245962142944,1.4292309284210205,0.02145528793334961,0.6316916942596436,3.1028494834899902,1.3556233644485474,-0.1675313413143158
304843.3666928713,-0.05283672735095024,0.23458117246627808,0.8169623017311096,0.5649694800376892,-0.14131316542625427,0.5433804988861084,1.7380298376083374,1.3533470630645752
304843.3706928713,-0.06931931525468826,0.20646731555461884,1.0667821168899536,1.1960399150848389,0.20515522360801697,0.11259803175926208,1.5476223230361938,2.4171907901763916
304843.3746928713,-0.07699137926101685,0.1293765902519226,1.1812162399291992,1.7859904766082764,0.6949016451835632,-0.3967011868953705,0.8978150486946106,3.1106650829315186
304843.3786928713,-0.0867038294672966,0.14314380288124084,1.3456798791885376,2.05641770362854,0.7764022946357727,-0.5061964392662048,1.0213892459869385,3.663130283355713
304843.3826928713,-0.029031045734882355,-0.05445713549852371,0.369784951210022,1.08987295627594,1.3786017894744873,0.7407817244529724,-0.11565149575471878,-0.6837601661682129
304843.3866928713,-0.023965412750840187,-0.11104551702737808,0.23720622062683105,1.100559115409851,1.8363473415374756,1.5986050367355347,0.9748000502586365,0.6409308314323425
304843.3906928713,-0.012771764770150185,-0.16231262683868408,0.0187489315867424,0.9058879017829895,2.0059638023376465,2.356632709503174,2.2079126834869385,2.662687063217163
304843.3946928713,-0.015076509676873684,-0.1895786076784134,0.009157941676676273,1.0197534561157227,2.2859060764312744,2.724125623703003,2.5769472122192383,2.975132465362549
304843.3986928713,0.027408720925450325,-0.050109051167964935,-0.1610696166753769,-0.0787329152226448,0.20543192327022552,0.807868242263794,1.436801552772522,2.238821506500244
304843.4026928713,0.06647725403308868,-0.0014215772971510887,-0.1231537014245987,-0.15550529956817627,-0.047928668558597565,0.4380466639995575,0.9541611671447754,1.7921065092086792
304843.4066928713,0.10579293221235275,0.07327289879322052,-0.023208197206258774,-0.21376217901706696,-0.29875075817108154,-0.03529283404350281,0.21799799799919128,0.8662154078483582
304843.4106928713,0.12041880190372467,0.07821139693260193,-0.027786515653133392,-0.2552602291107178,-0.36467212438583374,-0.11293254047632217,0.13466130197048187,0.9156811833381653
304843.41469287133,0.10774410516023636,0.20750783383846283,0.29344263672828674,0.4009920060634613,0.4505167305469513,0.4833565056324005,0.6654055118560791,0.49966907501220703
304843.4186928713,0.18406859040260315,0.40840843319892883,0.6878724694252014,0.9612351059913635,1.24080228805542,1.4177192449569702,1.8370516300201416,1.7785438299179077
304843.4226928713,0.2513366937637329,0.5980450510978699,1.0815192461013794,1.5148292779922485,2.0371251106262207,2.3173508644104004,2.888009548187256,2.9134130477905273
304843.4266928713,0.28600162267684937,0.6827906966209412,1.236042857170105,1.7453117370605469,2.3465347290039062,2.6862449645996094,3.43414044380188,3.4854440689086914
304843.43069287133,0.18878301978111267,0.5282813310623169,0.8837193846702576,1.151707649230957,1.3253690004348755,1.005924105644226,0.6854514479637146,0.11596060544252396
304843.4346928713,0.29297691583633423,0.7813785076141357,1.1418715715408325,1.2745591402053833,1.1045171022415161,0.618091881275177,0.2356962412595749,0.23251239955425262
304843.4386928713,0.3764341473579407,0.9620330929756165,1.2701237201690674,1.181127667427063,0.6096881031990051,0.03179151937365532,-0.291726678609848,0.6621482372283936
304843.4426928713,0.42818260192871094,1.1013857126235962,1.4419277906417847,1.346418857574463,0.6587927341461182,-0.02318890579044819,-0.4589264988899231,0.639876127243042
304843.44669287134,0.26185521483421326,0.5438334345817566,0.47896072268486023,0.10712394118309021,-0.25596296787261963,0.35419926047325134,2.2253470420837402,2.151989221572876
304843.4506928713,0.38507798314094543,0.7191550731658936,0.41588538885116577,-0.10421741753816605,0.1892806440591812,1.4546266794204712,4.077229022979736,1.8979703187942505
304843.4546928713,0.4758424758911133,0.812141478061676,0.24980178475379944,-0.3387284278869629,0.7523515820503235,2.6193125247955322,5.3443074226379395,1.042731761932373
304843.4586928713,0.5401729941368103,0.922805905342102,0.27661824226379395,-0.42036545276641846,0.8478904366493225,3.0434765815734863,6.239254474639893,1.2086076736450195
304843.46269287134,0.2884596884250641,0.32362911105155945,-0.16439959406852722,0.21569447219371796,1.230212926864624,1.1490200757980347,-0.14889481663703918,0.19763527810573578
304843.4666928713,0.40965035557746887,0.3353760242462158,-0.18561790883541107,0.7886172533035278,1.708647608757019,0.8603658676147461,0.06986130774021149,1.625125527381897
304843.4706928713,0.49247342348098755,0.28857654333114624,-0.17173780500888824,1.4029123783111572,1.9536195993423462,0.3417632281780243,0.5780463218688965,3.2299022674560547
304843.4746928713,0.5589922666549683,0.32393878698349,-0.19685006141662598,1.6115998029708862,2.247209072113037,0.3290332555770874,0.6124917268753052,3.7198548316955566
304843.47869287134,0.3012244701385498,-0.008898094296455383,0.271444171667099,1.2136902809143066,0.026858894154429436,0.3806281089782715,1.7858402729034424,0.3691179156303406
304843.4826928713,0.45073214173316956,-0.054940756410360336,0.575265645980835,1.793182134628296,-0.304627388715744,1.093342900276184,2.5166804790496826,-0.2516712248325348
304843.4866928713,0.5181930661201477,-0.06241023913025856,0.655592679977417,2.092937707901001,-0.3520611822605133,1.2325544357299805,2.941288948059082,-0.31968021392822266
304843.49069287133,0.24746190011501312,-0.08913219720125198,0.6835543513298035,0.5102836489677429,-0.04877012223005295,1.5943021774291992,0.11914088577032089,0.9334732294082642
304843.4946928713,0.3265748918056488,-0.0993613451719284,1.0962790250778198,0.30749717354774475,0.6311519145965576,1.687440037727356,0.3205015957355499,1.952561855316162
304843.4986928713,0.36965852975845337,-0.08498501032590866,1.414164662361145,-0.011678775772452354,1.4034181833267212,1.438887596130371,0.6566612124443054,2.7649142742156982
304843.5026928713,0.4189301133155823,-0.0959552451968193,1.6345853805541992,-0.03366275131702423,1.6237775087356567,1.642496109008789,0.7076517939567566,3.224730968475342
304843.50669287133,0.17583441734313965,0.05328822508454323,0.7382969856262207,-0.12688682973384857,1.3501770496368408,-0.23045136034488678,1.9806721210479736,-0.11026464402675629
304843.5106928713,0.21752022206783295,0.18872126936912537,0.8187654614448547,0.2138015329837799,1.4577796459197998,0.14824555814266205,2.2372918128967285,0.8764792084693909
304843.5146928713,0.23173503577709198,0.3348797559738159,0.7584872841835022,0.6338165402412415,1.2742103338241577,0.7677565813064575,2.047022819519043,2.475438117980957
304843.5186928713,0.2623714804649353,0.38266921043395996,0.861223042011261,0.7184948921203613,1.4559662342071533,0.8540135025978088,2.3890838623046875,2.628689765930176
304843.52269287134,0.09058443456888199,0.3764617145061493,0.07558425515890121,0.9256820678710938,-0.10772698372602463,1.7530202865600586,0.01514394674450159,2.265774726867676
304843.5266928713,0.09860549867153168,0.6239870190620422,-0.047192711383104324,1.4596822261810303,-0.09433804452419281,1.9639301300048828,0.8071366548538208,1.7578321695327759
304843.5306928713,0.09130921214818954,0.8315026760101318,-0.1867363005876541,1.8649126291275024,0.033190757036209106,1.803687334060669,1.8543299436569214,0.5303189754486084
304843.5346928713,0.10229374468326569,0.9450178146362305,-0.21483580768108368,2.1490392684936523,-0.028402337804436684,2.079993963241577,2.046072006225586,0.6106205582618713
304843.53869287134,0.0163846667855978,0.5924644470214844,-0.0657796785235405,0.648189127445221,0.9008835554122925,-0.19417516887187958,1.9724483489990234,0.6164830327033997
304843.5426928713,-0.002683523576706648,0.8116772174835205,0.11481798440217972,0.48308634757995605,1.5790915489196777,0.006130851339548826,1.6261926889419556,1.9333564043045044
304843.5466928713,-0.026636874303221703,0.9473803639411926,0.3494527339935303,0.18222551047801971,2.158783197402954,0.4397750794887543,0.8294833302497864,3.264594316482544
304843.55069287133,-0.0313786119222641,1.0818800926208496,0.39457640051841736,0.18046246469020844,2.4671261310577393,0.45857736468315125,0.8931639194488525,3.79962420463562
304843.55469287134,-0.04167376458644867,0.46442911028862,0.5914223194122314,-0.1772748827934265,0.7583557963371277,1.4586650133132935,-0.06216048821806908,0.4240795373916626
304843.5586928713,-0.06630899012088776,0.555634617805481,1.0054277181625366,0.06936424970626831,0.5342774987220764,1.8397865295410156,1.1673011779785156,0.3374866843223572
304843.5626928713,-0.08652374148368835,0.5654847621917725,1.3675587177276611,0.3898604214191437,0.16518759727478027,1.9159890413284302,2.5373759269714355,0.43041399121284485
304843.56669287133,-0.09723909199237823,0.6423028707504272,1.5599535703659058,0.43761375546455383,0.1549483835697174,2.211634874343872,2.9841315746307373,0.3541496992111206
304843.57069287135,-0.04422250762581825,0.1505851447582245,0.8104305863380432,0.8614180088043213,-0.016749132424592972,-0.11561146378517151,1.2724028825759888,1.859694242477417
304843.5746928713,-0.05777330696582794,0.11256017535924911,0.9711476564407349,1.4302387237548828,0.6676362752914429,0.019971923902630806,0.7050424814224243,1.9771579504013062
304843.5786928713,-0.06501829624176025,0.04005806893110275,0.9792914986610413,1.8532761335372925,1.4851999282836914,0.31063973903656006,-0.1394730657339096,1.6228148937225342
304843.58269287134,-0.074194997549057,0.044258926063776016,1.1133341789245605,2.158125638961792,1.7037369012832642,0.3065987825393677,-0.23430690169334412,1.8839824199676514
304843.58669287135,-0.013616301119327545,-0.0894722044467926,0.18170523643493652,0.8091312646865845,1.551354169845581,1.4950199127197266,1.2477425336837769,0.08992346376180649
304843.5906928713,-0.000315574900014326,-0.12419337779283524,0.0329057052731514,0.688859224319458,1.6674716472625732,2.1829769611358643,3.6808202266693115,1.3918036222457886
304843.5946928713,0.018501825630664825,-0.15227320790290833,-0.1649545282125473,0.40371736884117126,1.4266424179077148,2.511481523513794,6.035974502563477,2.779792547225952
304843.59869287134,0.021096447482705116,-0.1731078177690506,-0.20607170462608337,0.43790096044540405,1.6309758424758911,2.9168546199798584,7.029114246368408,3.2909319400787354
304843.60269287135,0.059718094766139984,0.0051526715978980064,-0.08865226805210114,-0.1384149193763733,-0.21758154034614563,-0.04575042799115181,0.32196468114852905,0.644809901714325
304843.6066928713,0.10606824606657028,0.05777107924222946,-0.022794364020228386,-0.15285047888755798,-0.3961416780948639,-0.3529411256313324,0.05570631101727486,0.2101951241493225
304843.6106928713,0.12146167457103729,0.06421002745628357,-0.023867757990956306,-0.19468961656093597,-0.464705228805542,-0.46246469020843506,-0.014265520498156548,0.23805025219917297
304843.61469287134,0.107198566198349,0.20078396797180176,0.2836742699146271,0.3586147725582123,0.41977283358573914,0.6005517840385437,0.6578547358512878,0.719709575176239
304843.6186928713,0.18396982550621033,0.4118020832538605,0.6556839346885681,0.977344274520874,1.1993311643600464,1.7301092147827148,1.8124198913574219,2.054807662963867
304843.6226928713,0.2513827979564667,0.6163327097892761,1.0218734741210938,1.620732069015503,1.9526156187057495,2.863849401473999,2.94172739982605,3.300478935241699
304843.62669287133,0.2865079939365387,0.7016627788543701,1.1685186624526978,1.845180869102478,2.2729833126068115,3.3162851333618164,3.376267194747925,3.900430202484131
304843.63069287135,0.1933019608259201,0.5150068402290344,0.8393028974533081,1.0983296632766724,1.1950600147247314,1.0625994205474854,0.6380477547645569,-0.08207213878631592
304843.6346928713,0.3015766143798828,0.7754273414611816,1.1562435626983643,1.2251094579696655,0.9763517379760742,0.6589630842208862,0.10677722841501236,0.4687604010105133
304843.6386928713,0.3888152241706848,0.9787288904190063,1.3327927589416504,1.1398351192474365,0.4713287353515625,0.01901998184621334,-0.4386284351348877,1.5752544403076172
304843.64269287133,0.44223517179489136,1.10879647731781,1.5235986709594727,1.2901347875595093,0.5239813327789307,0.0002073667710646987,-0.6448540091514587,1.6406469345092773
304843.64669287135,0.26117685437202454,0.5737566351890564,0.4927745461463928,0.04953008517622948,-0.3552471399307251,0.1809041053056717,1.2979686260223389,2.172684907913208
304843.6506928713,0.3826799690723419,0.732380747795105,0.41636648774147034,-0.059717368334531784,0.06355214864015579,1.2883378267288208,2.062208414077759,1.9836832284927368
304843.6546928713,0.47302258014678955,0.8052910566329956,0.23678790032863617,-0.143544539809227,0.681020200252533,2.490499973297119,2.5715153217315674,1.1619116067886353
304843.65869287134,0.5359917879104614,0.9159848690032959,0.25814110040664673,-0.19404566287994385,0.7723376154899597,2.862792491912842,2.9869325160980225,1.334398627281189
304843.66269287135,0.2877424657344818,0.31927546858787537,-0.14300040900707245,0.21501918137073517,1.2801663875579834,1.390406608581543,-0.05350969359278679,0.07064558565616608
304843.6666928713,0.4094943106174469,0.32448044419288635,-0.16949959099292755,0.7516366243362427,1.7331229448318481,0.8633806705474854,0.16908803582191467,1.4630167484283447
304843.6706928713,0.49063196778297424,0.2680860459804535,-0.1532522290945053,1.3123135566711426,1.9202483892440796,0.02459198422729969,0.6506001949310303,3.019379138946533
304843.67469287134,0.5591430068016052,0.3020704686641693,-0.17561250925064087,1.518155574798584,2.207367420196533,-0.01791299320757389,0.6988073587417603,3.485095500946045
304843.67869287136,0.2842946946620941,0.0006320078973658383,0.17866995930671692,1.1882895231246948,0.23252786695957184,0.16754110157489777,1.8495655059814453,0.965901255607605
304843.6826928713,0.382050484418869,-0.05574839562177658,0.511151909828186,1.377223253250122,0.06290050595998764,1.1474924087524414,2.1039364337921143,0.690504789352417
304843.6866928713,0.43913504481315613,-0.11120951920747757,0.8540780544281006,1.3677645921707153,-0.10035950690507889,2.249300003051758,1.8503789901733398,0.35036033391952515
304843.69069287134,0.498506098985672,-0.13521160185337067,0.9812822937965393,1.5533851385116577,-0.15421393513679504,2.6124162673950195,2.1176869869232178,0.3018265664577484
304843.69469287136,0.2477472871541977,-0.07065147161483765,0.9043492078781128,0.10345174372196198,0.6824685335159302,1.1776963472366333,0.14865648746490479,2.1669487953186035
304843.6986928713,0.3599565625190735,-0.07031281292438507,1.4240844249725342,-0.021368782967329025,1.404224157333374,1.2813910245895386,0.5958561897277832,3.130121946334839
304843.70269287133,0.4138663113117218,-0.0808790847659111,1.6289246082305908,-0.027049927040934563,1.6188032627105713,1.5030325651168823,0.6406368017196655,3.67134952545166
304843.70669287135,0.1749848574399948,0.05503903701901436,0.7910728454589844,-0.19756728410720825,1.4169268608093262,-0.09075240045785904,1.991163969039917,0.11227113753557205
304843.7106928713,0.21796241402626038,0.18437372148036957,0.8575197458267212,0.14319628477096558,1.5103249549865723,0.3973768949508667,2.308448314666748,0.4911108911037445
304843.7146928713,0.23311051726341248,0.3280031979084015,0.7766525745391846,0.5855515003204346,1.3259670734405518,1.0400731563568115,2.082848072052002,1.1175538301467896
304843.71869287133,0.26429909467697144,0.37385961413383484,0.8801859617233276,0.6687896847724915,1.5089701414108276,1.1600093841552734,2.4342124462127686,1.193801999092102
304843.72269287135,0.09195632487535477,0.38252729177474976,0.06444871425628662,0.973742663860321,-0.21791493892669678,1.5022859573364258,-0.13381856679916382,2.5223734378814697
304843.7266928713,0.098685622215271,0.6296171545982361,-0.06557463854551315,1.4693325757980347,-0.14262935519218445,1.781976342201233,1.348730206489563,1.9999595880508423
304843.7306928713,0.088795505464077,0.832912802696228,-0.22407138347625732,1.8386703729629517,0.05231945216655731,1.7069257497787476,3.320247173309326,0.8689429759979248
304843.73469287134,0.09990130364894867,0.9552738666534424,-0.2647254168987274,2.1049234867095947,0.00987293478101492,1.9675123691558838,3.696059465408325,0.9124757051467896
304843.73869287135,0.010971345007419586,0.5798364281654358,-0.06934411823749542,0.6750450134277344,0.9271230101585388,-0.3852495551109314,3.132605791091919,0.41980603337287903
304843.7426928713,-0.006484575103968382,0.8138357400894165,0.11917787045240402,0.4809761643409729,1.6538621187210083,-0.08868420124053955,2.213557004928589,2.0982985496520996
304843.7466928713,-0.028161674737930298,0.9658758640289307,0.3574037253856659,0.14722052216529846,2.2546582221984863,0.4321939945220947,0.7033501267433167,3.8169944286346436
304843.75069287134,-0.032883793115615845,1.1031979322433472,0.40464162826538086,0.13648244738578796,2.6273193359375,0.45821982622146606,0.6955269575119019,4.513914108276367
304843.75469287136,-0.03788306564092636,0.47373834252357483,0.5921632051467896,-0.2274320274591446,0.8207352757453918,1.5736795663833618,-0.1543438583612442,0.4201706051826477
304843.7586928713,-0.057403501123189926,0.5534775853157043,0.9962064027786255,-0.0240655355155468,0.5209069848060608,2.0925326347351074,1.0497314929962158,0.549172043800354
304843.7626928713,-0.07187315076589584,0.554546058177948,1.3416481018066406,0.29790252447128296,0.041665006428956985,2.2166779041290283,2.3950796127319336,0.9734577536582947
304843.76669287134,-0.08145064860582352,0.6269338130950928,1.5331525802612305,0.331393301486969,0.027300221845507622,2.583378791809082,2.8124711513519287,0.8616304397583008
304843.77069287136,-0.05443866178393364,0.15455546975135803,0.8605732917785645,0.8865350484848022,-0.03701034560799599,-0.07068970054388046,1.4302476644515991,2.160196542739868
304843.7746928713,-0.06281712651252747,0.11395986378192902,0.9943134188652039,1.4428097009658813,0.6230027675628662,-0.02598096989095211,0.6350492835044861,2.4068753719329834
304843.77869287133,-0.06032351031899452,0.04123059660196304,0.9821267127990723,1.8628350496292114,1.3844963312149048,0.20215803384780884,-0.4742111563682556,2.016214370727539
304843.78269287135,-0.06811688840389252,0.04189223423600197,1.1173031330108643,2.1283886432647705,1.600178599357605,0.1978626400232315,-0.6469849348068237,2.3312137126922607
304843.78669287136,-0.023326393216848373,-0.10022449493408203,0.14990264177322388,0.8515442609786987,1.4708340167999268,1.3616007566452026,0.7259991765022278,-0.27590519189834595
304843.7906928713,-0.008896558545529842,-0.15539851784706116,0.014321999624371529,0.7332965135574341,1.5280120372772217,2.008056402206421,1.8365559577941895,1.3550516366958618
304843.79469287134,0.012494884431362152,-0.1913931518793106,-0.15125927329063416,0.45365554094314575,1.2990537881851196,2.379788398742676,2.825188636779785,3.1951985359191895
304843.79869287135,0.015262031927704811,-0.22023656964302063,-0.1878422498703003,0.49419593811035156,1.4943374395370483,2.8138105869293213,3.301710367202759,3.72944712638855
304843.80269287137,0.04656505212187767,-0.021659156307578087,-0.17617738246917725,-0.17753158509731293,-0.07400999963283539,0.07207317650318146,0.4043189585208893,1.1017721891403198
304843.8066928713,0.09418705850839615,0.07725124061107635,-0.05376710742712021,-0.12275227159261703,-0.0095282644033432,-0.027344699949026108,0.11536996811628342,0.39972245693206787
304843.81069287134,0.14110369980335236,0.19451119005680084,0.13385441899299622,0.04432353749871254,0.13797637820243835,-0.01529446616768837,-0.044487565755844116,-0.30764293670654297
304843.81469287135,0.16061311960220337,0.2242417186498642,0.15294544398784637,0.033576540648937225,0.1206316351890564,-0.08506716042757034,-0.21646694839000702,-0.5720040798187256
304843.81869287137,0.12893103063106537,0.2940501272678375,0.4897388517856598,0.7059105634689331,0.9494044780731201,1.3240625858306885,1.531902551651001,1.9336854219436646
304843.8226928713,0.21336041390895844,0.5278832316398621,0.9249280095100403,1.380035638809204,1.6446195840835571,2.102653741836548,2.217585802078247,2.4530205726623535
304843.82669287134,0.28514018654823303,0.7366870045661926,1.3162999153137207,1.9895482063293457,2.172475576400757,2.5843751430511475,2.5392518043518066,2.389343023300171
304843.83069287136,0.3250943720340729,0.8402500152587891,1.5152552127838135,2.293039321899414,2.542898178100586,3.0386087894439697,2.9705426692962646,2.7921574115753174
304843.8346928714,0.23988717794418335,0.6042869091033936,0.9569231867790222,0.8582162261009216,0.5819961428642273,0.10690829157829285,0.03566779941320419,0.21681776642799377
304843.83869287133,0.3764447271823883,0.9488615393638611,1.3627233505249023,1.0897313356399536,0.4924081265926361,-0.1710328757762909,0.04084441810846329,0.74698406457901
304843.84269287135,0.4326139986515045,1.086983323097229,1.578629732131958,1.2651443481445312,0.5832194089889526,-0.24877828359603882,-0.021182488650083542,0.7234368324279785
304843.84669287136,0.258273720741272,0.5464046597480774,0.48240965604782104,0.05681223422288895,-0.3559616506099701,0.18865801393985748,1.531165599822998,1.963002324104309
304843.8506928713,0.38136374950408936,0.7171241044998169,0.4045149087905884,-0.09894929081201553,0.0958397164940834,1.2005527019500732,2.38966965675354,1.8312891721725464
304843.85469287133,0.47328224778175354,0.8006036877632141,0.21641629934310913,-0.2327330857515335,0.7100235223770142,2.2609288692474365,2.8573286533355713,1.2416636943817139
304843.85869287135,0.5366098880767822,0.9106355309486389,0.24142329394817352,-0.3063000440597534,0.8167251348495483,2.62272310256958,3.3683316707611084,1.4128965139389038
304843.86269287136,0.290770024061203,0.3233449161052704,-0.16507679224014282,0.20787006616592407,1.340456247329712,1.3660659790039062,0.006245545111596584,0.2848394811153412
304843.8666928713,0.4091477394104004,0.3253623843193054,-0.1608542650938034,0.7773730158805847,1.8263452053070068,0.8409163951873779,0.5822342038154602,1.6702731847763062
304843.87069287134,0.4879308342933655,0.26450538635253906,-0.10640506446361542,1.374406337738037,2.0506443977355957,0.04207872226834297,1.4648784399032593,3.2349534034729004
304843.87469287135,0.5559449195861816,0.2972731590270996,-0.11759574711322784,1.5876402854919434,2.3868319988250732,-0.03416316956281662,1.5034573078155518,3.709763288497925
304843.87869287137,0.27271488308906555,0.012396272271871567,0.16962875425815582,1.1503267288208008,0.22295711934566498,0.09433646500110626,2.8605403900146484,0.6804449558258057
304843.8826928713,0.3758523464202881,-0.06167889013886452,0.5185739398002625,1.4208627939224243,0.04811562970280647,1.0468552112579346,2.627159357070923,0.39766672253608704
304843.88669287134,0.4424971044063568,-0.1446188986301422,0.8855656385421753,1.4491740465164185,-0.12166183441877365,2.1009936332702637,1.8450851440429688,0.2714572548866272
304843.89069287135,0.5017536282539368,-0.16765768826007843,1.0158628225326538,1.6621571779251099,-0.19921144843101501,2.4346072673797607,2.0758934020996094,0.04923897981643677
304843.89469287137,0.23042789101600647,-0.07585970312356949,0.7821485996246338,0.15850703418254852,0.48699232935905457,1.4844582080841064,-0.18241702020168304,2.2996668815612793
304843.8986928713,0.29983437061309814,-0.0562187023460865,1.154252052307129,-0.04930321127176285,1.2149168252944946,1.0844014883041382,0.6944530010223389,2.6052703857421875
304843.90269287134,0.33476346731185913,-0.010913515463471413,1.414326786994934,-0.2934151887893677,1.9289048910140991,0.30814677476882935,1.8631500005722046,2.258920907974243
304843.90669287136,0.37942764163017273,-0.015981560572981834,1.6228036880493164,-0.3438609838485718,2.217522621154785,0.3458411991596222,2.0908892154693604,2.596229076385498
304843.9106928714,0.1564604640007019,0.12195255607366562,0.6182667016983032,0.10438191145658493,1.27157461643219,-0.18402154743671417,1.7720425128936768,-0.11980258673429489
304843.91469287133,0.18930156528949738,0.29421305656433105,0.5906247496604919,0.5853555202484131,1.0665264129638672,0.7431480288505554,1.4986586570739746,2.2699954509735107
304843.91869287135,0.19683776795864105,0.46963539719581604,0.4393775463104248,1.139455795288086,0.6116411685943604,1.8327198028564453,0.7347181439399719,5.234872817993164
304843.92269287136,0.2227311134338379,0.5367099046707153,0.4930640161037445,1.2997748851776123,0.6625747084617615,2.1067864894866943,0.8760031461715698,6.066366195678711
304843.9266928714,0.07249627262353897,0.4425199627876282,-0.10496500879526138,1.0961335897445679,-0.22617781162261963,1.6517484188079834,0.10957791656255722,1.3790475130081177
304843.93069287133,0.07190689444541931,0.7123117446899414,-0.15058188140392303,1.4485265016555786,0.16863231360912323,1.4294499158859253,1.2666609287261963,0.8010850548744202
304843.93469287135,0.0566532202064991,0.9335842728614807,-0.16585342586040497,1.5834300518035889,0.7053165435791016,0.8723965883255005,2.5574376583099365,0.08369306474924088
304843.93869287136,0.06403954327106476,1.0610058307647705,-0.1994941532611847,1.825282096862793,0.7798066735267639,0.9522275924682617,2.9587857723236084,-0.08161016553640366
304843.9426928714,-9.153478458756581e-05,0.5895469188690186,0.027498558163642883,0.34110569953918457,1.2359191179275513,-0.08253210783004761,1.1684819459915161,1.6729780435562134
304843.94669287134,-0.02249865233898163,0.7735004425048828,0.32608598470687866,0.15420083701610565,1.6452348232269287,0.6362675428390503,0.6444578170776367,2.523423194885254
304843.95069287135,-0.048640958964824677,0.8694891333580017,0.6623900532722473,-0.10194835066795349,1.8275595903396606,1.5066395998001099,-0.08972558379173279,2.888674020767212
304843.95469287137,-0.05627794936299324,0.9901911020278931,0.7614078521728516,-0.13697220385074615,2.0964200496673584,1.7206557989120483,-0.18869441747665405,3.466074228286743
304843.9586928714,-0.040982842445373535,0.40060243010520935,0.7688531875610352,-0.022669630125164986,0.27360305190086365,1.9331648349761963,0.9802039861679077,-0.17289003729820251
304843.96269287134,-0.06264196336269379,0.4443146288394928,1.1705121994018555,0.36943960189819336,-0.008583306334912777,1.8023120164871216,2.2976551055908203,0.735755205154419
304843.96669287136,-0.0784122422337532,0.4173247516155243,1.467586874961853,0.8344900012016296,-0.33424994349479675,1.219773292541504,3.44231915473938,2.049541473388672
304843.9706928714,-0.08995014429092407,0.47142496705055237,1.6888244152069092,0.9541317820549011,-0.4345656633377075,1.3678960800170898,4.040172576904297,2.2641570568084717
304843.9746928714,-0.04159725457429886,0.07891859114170074,0.7437370419502258,1.1003762483596802,0.44722434878349304,-0.16357499361038208,0.32469630241394043,1.776627779006958
304843.97869287134,-0.05131843313574791,0.016984764486551285,0.7721205949783325,1.5599796772003174,1.3132872581481934,0.426912397146225,0.1729058027267456,1.272070050239563
304843.98269287136,-0.05521877110004425,-0.06655153632164001,0.6673112511634827,1.8001376390457153,2.2162556648254395,1.1568124294281006,0.13910987973213196,0.3803655207157135
304843.9866928714,-0.062071237713098526,-0.0778835117816925,0.7504367232322693,2.0881383419036865,2.539620876312256,1.3139439821243286,0.06796059012413025,0.31287187337875366
304843.9906928714,-0.0038273963145911694,-0.08559153974056244,-0.007917908020317554,0.4925059378147125,1.1073182821273804,1.7632135152816772,1.8964900970458984,1.076011061668396
304843.99469287135,0.017687106505036354,-0.0933414176106453,-0.08837949484586716,0.3317194879055023,0.8971939086914062,1.8774477243423462,2.5363330841064453,2.3869566917419434
304843.99869287136,0.0444558709859848,-0.0804373249411583,-0.15671896934509277,0.0717773362994194,0.40661725401878357,1.574124813079834,2.6788463592529297,3.340139865875244
304844.0026928714,0.05137018859386444,-0.09374552965164185,-0.18317177891731262,0.0653778612613678,0.45692816376686096,1.808721899986267,3.1525211334228516,4.0417327880859375
304844.0066928714,0.06401412934064865,0.054247647523880005,0.0065831816755235195,-0.14481991529464722,-0.11289124935865402,-0.22259648144245148,-0.1315465271472931,-0.11871211975812912
304844.01069287135,0.12229344993829727,0.18996021151542664,0.2159736007452011,0.15784668922424316,0.23730887472629547,0.1594589352607727,0.39903274178504944,0.41990965604782104
304844.01469287137,0.17705190181732178,0.33677926659584045,0.46842634677886963,0.5764738917350769,0.7245090007781982,0.7855508327484131,1.144066572189331,1.2816921472549438
304844.0186928714,0.2018159031867981,0.384897917509079,0.5325800180435181,0.6576657295227051,0.8023076057434082,0.8479851484298706,1.2438772916793823,1.4126791954040527
304844.0226928714,0.14922776818275452,0.38054049015045166,0.6191816329956055,0.960889995098114,1.2925416231155396,1.6596015691757202,2.056133508682251,1.9765316247940063
304844.02669287135,0.24261705577373505,0.629483699798584,1.0716323852539062,1.5388562679290771,1.716296672821045,1.8342677354812622,1.9044853448867798,1.5959142446517944
304844.03069287137,0.32138141989707947,0.8378646969795227,1.4681909084320068,1.9814108610153198,1.9110560417175293,1.673723578453064,1.3172391653060913,0.6810314655303955
304844.0346928714,0.3656473457813263,0.9563013911247253,1.677891731262207,2.2850821018218994,2.184582233428955,1.9232810735702515,1.502983808517456,0.7615113854408264
304844.0386928714,0.22750599682331085,0.5899516344070435,0.7602750062942505,0.6939510703086853,0.2707637548446655,-0.16460518538951874,-0.13408811390399933,0.8261406421661377
304844.04269287136,0.3418176770210266,0.8055885434150696,0.8831473588943481,0.5245926976203918,-0.04701678454875946,0.145009383559227,0.875115692615509,2.8968942165374756
304844.0466928714,0.42827534675598145,0.9306592345237732,0.8657940626144409,0.2036348134279251,-0.42611369490623474,0.6050540804862976,2.1171047687530518,4.663199424743652
304844.0506928714,0.48774904012680054,1.0563828945159912,0.9873800277709961,0.22064697742462158,-0.542140781879425,0.6610833406448364,2.436610698699951,5.621877670288086
304844.0546928714,0.2767066955566406,0.46525731682777405,0.13283279538154602,-0.09911451488733292,0.4102171063423157,1.4961652755737305,3.401448965072632,0.33221957087516785
304844.05869287136,0.39780309796333313,0.5477180480957031,-0.0036871780175715685,0.06883504986763,1.2003346681594849,1.954421877861023,2.743678331375122,0.09738019853830338
304844.0626928714,0.48398566246032715,0.5529155731201172,-0.18411381542682648,0.325712114572525,1.9947046041488647,2.063011884689331,1.3678382635116577,0.09879060834646225
304844.0666928714,0.5496526956558228,0.6270134449005127,-0.20725750923156738,0.35119178891181946,2.2908897399902344,2.3767361640930176,1.4056777954101562,-0.08304274827241898
304844.0706928714,0.31778889894485474,0.13231559097766876,-0.04971747100353241,1.0503621101379395,1.0823858976364136,-0.09887216240167618,0.7035924196243286,1.9922258853912354
304844.07469287136,0.4708869755268097,0.1417558193206787,0.034280937165021896,1.7386324405670166,1.2625705003738403,-0.3411855399608612,1.8741456270217896,2.6875791549682617
304844.0786928714,0.5416237115859985,0.163963183760643,0.03476693853735924,2.0208523273468018,1.4713941812515259,-0.4682164192199707,2.140165090560913,3.1291794776916504
304844.0826928714,0.27359867095947266,-0.07199613749980927,0.3535582423210144,1.0198217630386353,-0.08985921740531921,0.7935166954994202,1.9338486194610596,-0.051913563162088394
304844.08669287135,0.36853981018066406,-0.11738529056310654,0.7520499229431152,1.092599630355835,-0.052974626421928406,1.8449723720550537,1.4614275693893433,0.6351723670959473
304844.09069287137,0.42386361956596375,-0.147896870970726,1.1439213752746582,0.9361869692802429,0.09671046584844589,2.781102180480957,0.5055426359176636,1.6623010635375977
304844.0946928714,0.4804829955101013,-0.1718289852142334,1.3020089864730835,1.061861276626587,0.062137965112924576,3.236110210418701,0.5465049743652344,1.7857319116592407
304844.0986928714,0.21230563521385193,-0.04717305302619934,0.8982980251312256,-0.11255554854869843,1.0714019536972046,0.778197169303894,0.2850843071937561,2.2791805267333984
304844.10269287135,0.27386587858200073,-0.0024344115518033504,1.1747801303863525,-0.14600147306919098,1.8053381443023682,0.35902032256126404,1.533548355102539,1.5521423816680908
304844.10669287137,0.30290138721466064,0.06472885608673096,1.2882378101348877,-0.11315608769655228,2.328892469406128,-0.19168981909751892,2.8500754833221436,0.256684809923172
304844.1106928714,0.3434334695339203,0.07205070555210114,1.4767138957977295,-0.13190960884094238,2.720639944076538,-0.30377092957496643,3.3368678092956543,0.2652256190776825
304844.1146928714,0.13443920016288757,0.20926369726657867,0.4300408661365509,0.3589419424533844,0.7437399625778198,0.5351778864860535,1.0192211866378784,0.7013069987297058
304844.11869287136,0.1579824984073639,0.4126223027706146,0.34966978430747986,0.952745258808136,0.4020361304283142,1.4707765579223633,0.4833787679672241,2.0423293113708496
304844.1226928714,0.15908946096897125,0.6056028604507446,0.18213900923728943,1.5493108034133911,-0.08128560334444046,2.400270938873291,-0.21306101977825165,3.2505056858062744
304844.1266928714,0.17988888919353485,0.6910678744316101,0.19619908928871155,1.77214515209198,-0.1562529057264328,2.7573680877685547,-0.37720391154289246,3.7952702045440674
304844.1306928714,0.04935155808925629,0.5234012603759766,-0.15936438739299774,1.1575262546539307,-0.03276457637548447,1.0876113176345825,1.0742411613464355,0.4409116506576538
304844.13469287136,0.04355630278587341,0.7874388694763184,-0.1567303091287613,1.3038984537124634,0.6228560209274292,0.5460606813430786,2.21234393119812,0.6339600086212158
304844.1386928714,0.027126118540763855,0.9856537580490112,-0.11789000034332275,1.217943549156189,1.391697645187378,-0.23144328594207764,3.128448724746704,0.9636009931564331
304844.1426928714,0.03073865920305252,1.124022364616394,-0.134442538022995,1.3926538228988647,1.6055634021759033,-0.3325599133968353,3.696232557296753,0.9765652418136597
304844.1466928714,-0.014139545150101185,0.5738746523857117,0.2329491674900055,0.015362469479441643,1.4211399555206299,0.264984130859375,0.3612276315689087,2.416227102279663
304844.15069287136,-0.035239409655332565,0.7346211075782776,0.5973168611526489,-0.168044313788414,1.5652698278427124,1.3433496952056885,0.2983640730381012,2.143460512161255
304844.1546928714,-0.05541802570223808,0.8029797673225403,0.9678453207015991,-0.3594376742839813,1.3811101913452148,2.52840518951416,0.29767757654190063,1.1501171588897705
304844.1586928714,-0.06483421474695206,0.9121120572090149,1.1082627773284912,-0.44383925199508667,1.5939269065856934,2.8855583667755127,0.23802988231182098,1.310355305671692
304844.1626928714,-0.04414280876517296,0.3250587284564972,0.8683235049247742,0.21222735941410065,-0.08134946972131729,1.3595962524414062,2.0064432621002197,0.1724950522184372
304844.16669287137,-0.06364589929580688,0.32685673236846924,1.1840307712554932,0.7686401009559631,-0.10387592017650604,0.8401971459388733,2.4060842990875244,2.224587917327881
