lsl_time,CZ,C3,CPZ3,FC4,FC3,CPZ4,C4,CPZ
304894.7761936359,-0.09682850539684296,0.3191085755825043,1.578688144683838,1.5343085527420044,-0.11161264777183533,0.00873011164367199,2.8236024379730225,4.151134490966797
304894.7801936359,-0.03596002608537674,0.01209627091884613,0.5382295846939087,1.1814939975738525,0.9985718727111816,0.1940770447254181,-0.3445335626602173,0.638651967048645
304894.78419363586,-0.038727693259716034,-0.06669344753026962,0.4991438686847687,1.4234193563461304,1.8106133937835693,1.1146665811538696,0.8326600790023804,0.3953982889652252
304894.7881936359,-0.0333295539021492,-0.16031025350093842,0.34755104780197144,1.4413071870803833,2.464900255203247,2.1142771244049072,2.4806406497955322,0.28538259863853455
304894.7921936359,-0.038515008985996246,-0.18837934732437134,0.3887307047843933,1.658868432044983,2.8572487831115723,2.4476287364959717,2.684760332107544,0.1832779347896576
304894.7961936359,0.013001937419176102,-0.10860323905944824,-0.05316799879074097,0.1766408532857895,0.8023907542228699,1.5533751249313354,3.7100393772125244,1.9790781736373901
304894.80019363586,0.042157139629125595,-0.09423647820949554,-0.14117327332496643,0.03258441388607025,0.4127082824707031,1.2194440364837646,3.2625350952148438,2.2045087814331055
304894.8041936359,0.07463612407445908,-0.05186014994978905,-0.2237083911895752,-0.12170414626598358,-0.16956374049186707,0.5835724472999573,1.9096543788909912,1.9515671730041504
304894.8081936359,0.08417677879333496,-0.05751580372452736,-0.2638222575187683,-0.17402257025241852,-0.22066962718963623,0.6049004793167114,2.021998643875122,2.2551071643829346
304894.8121936359,0.12477041035890579,0.19333525002002716,0.21834231913089752,0.19169487059116364,0.04623544216156006,0.023408832028508186,0.05032362788915634,-0.09821460396051407
304894.81619363587,0.1378154754638672,0.21004846692085266,0.22811098396778107,0.17916399240493774,0.00636172154918313,-0.016526509076356888,0.04174361377954483,-0.08787526190280914
304894.8201936359,0.09401649236679077,0.200768381357193,0.3251396417617798,0.454765647649765,0.5887154340744019,0.7559077143669128,0.9158346652984619,1.2290236949920654
304894.8241936359,0.15057501196861267,0.3702169358730316,0.6343001127243042,1.0653871297836304,1.4247941970825195,1.4649701118469238,1.9125797748565674,2.29032039642334
304894.82819363585,0.2416616827249527,0.6310495138168335,1.0870507955551147,1.5420621633529663,1.9000566005706787,1.7200572490692139,1.8134784698486328,1.6504371166229248
304894.83219363587,0.3168858587741852,0.8577626347541809,1.470837116241455,1.847633719444275,2.0474977493286133,1.6547880172729492,1.185172438621521,0.26385992765426636
304894.8361936359,0.36052095890045166,0.9789420962333679,1.6865040063858032,2.1003401279449463,2.3729255199432373,1.9184072017669678,1.3889604806900024,0.33046749234199524
304894.8401936359,0.22866655886173248,0.6092670559883118,0.846101701259613,0.7430852651596069,0.1523396223783493,-0.3303266763687134,-0.5182087421417236,0.9176707863807678
304894.84419363586,0.3424476683139801,0.8528909683227539,1.0198289155960083,0.6676806807518005,0.04607100784778595,-0.1539081484079361,0.2545469403266907,2.093491315841675
304894.8481936359,0.39751818776130676,0.8961790204048157,0.8088929057121277,0.21373558044433594,0.01734953373670578,0.5666177868843079,1.6786644458770752,2.6033990383148193
304894.8521936359,0.4370802044868469,0.8820576071739197,0.504896342754364,-0.2562863230705261,0.1506008803844452,1.5469552278518677,3.116791248321533,2.496049404144287
304894.8561936359,0.47215211391448975,0.9412751793861389,0.47714412212371826,-0.3871566951274872,0.1339455246925354,1.7990975379943848,3.642887592315674,2.750520706176758
304894.8601936359,0.31240469217300415,0.40619683265686035,-0.0614541657269001,0.10900106281042099,1.161312222480774,1.6655842065811157,0.5541216731071472,0.15058334171772003
304894.8641936359,0.47415411472320557,0.5460302829742432,-0.16226214170455933,0.3776642680168152,2.026883125305176,2.0769472122192383,0.07755891978740692,0.6044644713401794
304894.8681936359,0.5469653010368347,0.6312193274497986,-0.19117899239063263,0.4295993149280548,2.326359987258911,2.4169299602508545,0.1440466344356537,0.6293920874595642
304894.8721936359,0.29612454771995544,0.15651342272758484,-0.10214687138795853,0.8941918015480042,1.115708589553833,-0.14141950011253357,0.23990383744239807,2.2508153915405273
304894.87619363586,0.409190833568573,0.10827730596065521,0.05981992185115814,1.4144777059555054,1.012984275817871,-0.16783206164836884,1.470653772354126,2.1304872035980225
304894.8801936359,0.4799497723579407,0.022838901728391647,0.2697894275188446,1.800731897354126,0.6732168197631836,0.020043140277266502,2.739516019821167,1.4455713033676147
304894.8841936359,0.5457521080970764,0.021549707278609276,0.30234333872795105,2.071911573410034,0.7379412651062012,-0.060391586273908615,3.198922872543335,1.6978332996368408
304894.8881936359,0.26298823952674866,-0.09177497774362564,0.533322811126709,0.7921344637870789,-0.29983267188072205,1.4129412174224854,0.9033597707748413,-0.042335089296102524
304894.89219363587,0.34998181462287903,-0.138288214802742,0.9395220279693604,0.7147407531738281,0.10249791294336319,2.002800941467285,0.32401835918426514,1.4000171422958374
304894.8961936359,0.39983585476875305,-0.16893354058265686,1.2903602123260498,0.48022133111953735,0.6812880039215088,2.3208537101745605,-0.39975905418395996,3.045346736907959
304894.9001936359,0.4536742866039276,-0.1948518455028534,1.4758402109146118,0.5294872522354126,0.7791627049446106,2.699936628341675,-0.583537757396698,3.5027928352355957
304894.9041936359,0.19559012353420258,-0.020501291379332542,0.8602495789527893,-0.2774786651134491,1.2672799825668335,0.07135726511478424,1.2492108345031738,0.976939857006073
304894.90819363587,0.24703073501586914,0.06983473151922226,1.0449607372283936,-0.154567688703537,1.672336459159851,-0.10476526618003845,2.1956253051757812,0.5660431981086731
304894.9121936359,0.26853305101394653,0.1820814460515976,1.0662058591842651,0.07304471731185913,1.84175443649292,-0.16079415380954742,2.846931219100952,0.15038344264030457
304894.9161936359,0.30462145805358887,0.2079474925994873,1.2139641046524048,0.06662559509277344,2.10921049118042,-0.27173420786857605,3.314453601837158,-0.04631945490837097
304894.9201936359,0.11286139488220215,0.2885419428348541,0.2396506667137146,0.6691349744796753,0.21338878571987152,1.300431251525879,-0.020128492265939713,2.012000799179077
304894.9241936359,0.1294431984424591,0.5197243690490723,0.12299774587154388,1.2659631967544556,-0.09656505286693573,2.1955223083496094,0.20529304444789886,2.614776849746704
304894.9281936359,0.12702833116054535,0.7281448245048523,-0.052631985396146774,1.810996413230896,-0.4365030825138092,2.825470209121704,0.7030627131462097,2.6143229007720947
304894.9321936359,0.1435384452342987,0.8311957716941833,-0.05985519289970398,2.070197820663452,-0.5490626096725464,3.3023717403411865,0.7041712403297424,3.128330945968628
304894.9361936359,0.031064800918102264,0.5371326208114624,-0.13655255734920502,0.9417760372161865,0.50190669298172,0.23830023407936096,3.6676828861236572,-0.5338536500930786
304894.9401936359,0.018860412761569023,0.7947652339935303,-0.0419030524790287,0.9059522747993469,1.2560030221939087,0.0031211967580020428,3.7034223079681396,0.8732197880744934
304894.9441936359,0.0003790470364037901,0.9802082180976868,0.10200630873441696,0.6809678673744202,1.9769172668457031,-0.17501398921012878,2.764801502227783,2.687108039855957
304894.9481936359,-0.0013691894710063934,1.1161441802978516,0.10802021622657776,0.7622917890548706,2.3065459728240967,-0.2605940103530884,3.026698112487793,3.037501335144043
304894.9521936359,-0.025483492761850357,0.5401935577392578,0.41951826214790344,-0.14305977523326874,1.2143218517303467,1.0016205310821533,-0.18830285966396332,1.6611928939819336
304894.9561936359,-0.0483134500682354,0.6634016036987305,0.8245923519134521,-0.1418798267841339,1.0539950132369995,1.890061378479004,0.409184068441391,0.683097779750824
304894.9601936359,-0.06940773129463196,0.6971168518066406,1.2031822204589844,-0.06712356209754944,0.6266666650772095,2.6109976768493652,1.246541976928711,-0.7059648633003235
304894.9641936359,-0.07986994832754135,0.792729914188385,1.3727813959121704,-0.07923543453216553,0.6942917704582214,3.0572166442871094,1.3838921785354614,-0.9196556806564331
304894.9681936359,-0.05214434489607811,0.23822422325611115,0.8733007907867432,0.5431493520736694,-0.3688408136367798,0.5339171290397644,1.9865976572036743,1.715989112854004
304894.9721936359,-0.06460993736982346,0.21727564930915833,1.126534342765808,1.1620702743530273,0.03996262326836586,0.09909959137439728,1.633021593093872,2.595874071121216
304894.9761936359,-0.06857806444168091,0.14825010299682617,1.2256873846054077,1.7482192516326904,0.6251626014709473,-0.39896467328071594,0.8364059329032898,3.089716672897339
304894.9801936359,-0.07717537879943848,0.16448962688446045,1.3932968378067017,2.002902030944824,0.7115635871887207,-0.5342625379562378,0.9381594657897949,3.651413917541504
304894.98419363593,-0.024583125486969948,-0.04667990654706955,0.37717315554618835,1.1250441074371338,1.252723217010498,0.7290976643562317,0.16482646763324738,-0.3823060393333435
304894.9881936359,-0.019063130021095276,-0.10497705638408661,0.29057180881500244,1.1430305242538452,1.6897205114364624,1.7240824699401855,1.2103245258331299,0.2930082380771637
304894.9921936359,-0.007840625941753387,-0.1557360738515854,0.12751652300357819,0.9227157831192017,1.880863904953003,2.6638214588165283,2.3712799549102783,1.3982293605804443
304894.9961936359,-0.008805898949503899,-0.177936851978302,0.13167399168014526,1.0459598302841187,2.1743526458740234,3.0433201789855957,2.750610589981079,1.5286990404129028
304895.00019363593,0.025821177288889885,-0.059602029621601105,-0.16802357137203217,-0.000741796859074384,0.2640741169452667,0.7699307203292847,1.5327695608139038,2.2214860916137695
304895.0041936359,0.06698630750179291,-0.0006656649638898671,-0.1276269555091858,-0.05741129443049431,-0.017336370423436165,0.5021517276763916,0.8583398461341858,1.6053341627120972
304895.0081936359,0.10905339568853378,0.08018333464860916,-0.04020121321082115,-0.08042532205581665,-0.3341701626777649,0.10615602135658264,-0.1305117905139923,0.4116489887237549
304895.0121936359,0.12479519844055176,0.0886802151799202,-0.054956141859292984,-0.11860556155443192,-0.4528423845767975,0.07748409360647202,-0.2643013894557953,0.44764840602874756
304895.01619363594,0.1070670485496521,0.20350001752376556,0.29070767760276794,0.37089240550994873,0.46753090620040894,0.5818961262702942,0.740541398525238,0.8751566410064697
304895.0201936359,0.18334196507930756,0.40512463450431824,0.6943293213844299,1.0057761669158936,1.2847330570220947,1.627418875694275,1.943600058555603,2.394864082336426
304895.0241936359,0.25034597516059875,0.5952101349830627,1.1033353805541992,1.6583627462387085,2.140746831893921,2.6410813331604004,3.0396621227264404,3.805100917816162
304895.0281936359,0.28507936000823975,0.6803343296051025,1.2600270509719849,1.8988986015319824,2.4315500259399414,3.0969014167785645,3.599674701690674,4.489006519317627
304895.03219363594,0.22097066044807434,0.5828147530555725,0.9948596954345703,1.2107150554656982,1.0753051042556763,0.8613885641098022,0.38430455327033997,0.29097723960876465
304895.0361936359,0.34914031624794006,0.9064961671829224,1.4821492433547974,1.6393407583236694,1.28080415725708,0.6700969338417053,-0.07907753437757492,0.14559179544448853
304895.0401936359,0.40172895789146423,1.0447802543640137,1.7107919454574585,1.8981261253356934,1.5154739618301392,0.7920490503311157,-0.10695794224739075,0.141309455037117
304895.0441936359,0.2430877983570099,0.5936301946640015,0.6340938806533813,0.3538608253002167,-0.10478589683771133,-0.15592476725578308,0.5316179990768433,1.4184584617614746
304895.0481936359,0.3656257688999176,0.8002122640609741,0.6564644575119019,0.18952380120754242,-0.11024312674999237,0.5688835978507996,1.5713577270507812,2.1645803451538086
304895.0521936359,0.4577191472053528,0.9140720367431641,0.5573504567146301,-0.04183882102370262,0.01727372035384178,1.4260265827178955,2.5596790313720703,2.550201177597046
304895.0561936359,0.5208191871643066,1.0389018058776855,0.6290090084075928,-0.07551270723342896,-0.01751375012099743,1.642999291419983,2.9963130950927734,3.0405161380767822
304895.06019363593,0.2949777841567993,0.4515136182308197,-0.0014427276328206062,-0.15059484541416168,0.9430373907089233,1.8626010417938232,0.6808125376701355,-0.48037752509117126
304895.0641936359,0.42401036620140076,0.5253065228462219,-0.10853610187768936,0.142919659614563,1.5275890827178955,2.068467617034912,0.6173511743545532,0.054388511925935745
304895.0681936359,0.4649210572242737,0.40575069189071655,-0.20678967237472534,0.7154608964920044,1.7943369150161743,1.2434766292572021,0.752863347530365,1.3785169124603271
304895.0721936359,0.4829387366771698,0.2529050409793854,-0.24504001438617706,1.3338289260864258,1.880459189414978,0.177534818649292,1.3694056272506714,2.8543217182159424
304895.07619363593,0.5151239633560181,0.23437373340129852,-0.2941122055053711,1.5465701818466187,2.047600269317627,-0.04229920357465744,1.3695359230041504,3.418468713760376
304895.08019363595,0.30181095004081726,-0.019959956407546997,0.29473236203193665,1.202232003211975,0.03405631706118584,0.2865176200866699,2.652599573135376,0.5990048050880432
304895.0841936359,0.45136573910713196,-0.06674166768789291,0.5892404913902283,1.7111687660217285,-0.27587684988975525,1.0038448572158813,3.380725383758545,0.279863178730011
304895.0881936359,0.5191758275032043,-0.08155418932437897,0.6696260571479797,2.0091822147369385,-0.315705269575119,1.1399155855178833,3.8956491947174072,0.3474408984184265
304895.09219363594,0.25107884407043457,-0.08550336956977844,0.718695342540741,0.5083295702934265,-0.01888621784746647,1.6866657733917236,0.09750446677207947,1.3796305656433105
304895.0961936359,0.3282841145992279,-0.10570762306451797,1.1095818281173706,0.25592467188835144,0.6195517182350159,1.7599157094955444,0.25921446084976196,2.4802024364471436
304895.1001936359,0.36879265308380127,-0.10471495985984802,1.4097552299499512,-0.11209755390882492,1.349518060684204,1.3877661228179932,0.5725536346435547,3.333115816116333
304895.1041936359,0.41885730624198914,-0.11600605398416519,1.6069936752319336,-0.15184392035007477,1.5644277334213257,1.5964857339859009,0.5772243142127991,3.856335163116455
304895.10819363594,0.17529262602329254,0.05478490889072418,0.7270603775978088,-0.15190234780311584,1.424792766571045,-0.4555763900279999,1.7251297235488892,-0.1024707704782486
304895.1121936359,0.21780379116535187,0.18915748596191406,0.8211734890937805,0.14686323702335358,1.4915771484375,0.03570537269115448,2.139949321746826,0.865149736404419
304895.1161936359,0.2325667291879654,0.3348437249660492,0.7736073136329651,0.5525503158569336,1.2825876474380493,0.7741411328315735,2.141998052597046,2.460505723953247
304895.1201936359,0.2635105848312378,0.38176560401916504,0.879588782787323,0.6257328391075134,1.4655357599258423,0.8402487635612488,2.481786012649536,2.62081241607666
304895.12419363594,0.09825453162193298,0.369219571352005,0.06773264706134796,1.0295003652572632,-0.42122530937194824,1.8875434398651123,-0.769507646560669,4.391315460205078
304895.1281936359,0.11341261863708496,0.6102899312973022,0.016370277851819992,1.5040874481201172,-0.37518414855003357,2.2047677040100098,-0.12313175946474075,3.961834192276001
304895.1321936359,0.08769848197698593,0.774803876876831,-0.07433955371379852,1.5851858854293823,0.08513165265321732,1.578387975692749,1.254335880279541,1.7383259534835815
304895.13619363593,0.056311167776584625,0.9011507630348206,-0.15253305435180664,1.5054477453231812,0.7040578126907349,0.6776241064071655,2.6818861961364746,-0.2993650436401367
304895.14019363595,0.05218461900949478,0.9942272901535034,-0.18623337149620056,1.6104408502578735,0.8474913835525513,0.5548714399337769,3.2181966304779053,-0.9085413813591003
304895.14419363596,-0.012992486357688904,0.6384453177452087,0.16438406705856323,0.2625538110733032,1.5908817052841187,0.0713595375418663,0.8867416977882385,1.8055593967437744
304895.1481936359,-0.030024589970707893,0.9277809858322144,0.3834988474845886,0.18414679169654846,2.4559855461120605,0.5431347489356995,0.6406217217445374,3.154881000518799
304895.15219363593,-0.03411521762609482,1.0730832815170288,0.4363099932670593,0.21845674514770508,2.8494296073913574,0.6047172546386719,0.7630710005760193,3.6462650299072266
304895.15619363595,-0.037347935140132904,0.45485568046569824,0.5913313031196594,-0.20704768598079681,0.8221123218536377,1.6366193294525146,0.11139549314975739,0.5175496339797974
304895.1601936359,-0.0587666891515255,0.5448391437530518,1.0039952993392944,0.025709476321935654,0.4316798150539398,2.1455557346343994,1.1653079986572266,0.38660410046577454
304895.1641936359,-0.07410603761672974,0.5572858452796936,1.3405070304870605,0.3379051387310028,-0.15932083129882812,2.2357027530670166,2.28818678855896,0.3928491473197937
304895.16819363594,-0.08429861068725586,0.6323285102844238,1.5455398559570312,0.3699541687965393,-0.20432952046394348,2.5889995098114014,2.6934478282928467,0.26785457134246826
304895.17219363595,-0.055734388530254364,0.15298901498317719,0.8293797373771667,0.8795663118362427,0.007230361923575401,-0.06619034707546234,1.3725930452346802,2.148728132247925
304895.1761936359,-0.06766356527805328,0.1004205197095871,0.9715926051139832,1.5081640481948853,0.7080885171890259,-0.004213909152895212,0.7293559908866882,2.1451187133789062
304895.1801936359,-0.07005472481250763,0.009664864279329777,0.9728921055793762,2.0096662044525146,1.5041457414627075,0.22987999022006989,-0.2242230921983719,1.6621873378753662
304895.18419363594,-0.0794261023402214,0.007668291684240103,1.1068764925003052,2.308473587036133,1.7310837507247925,0.22981055080890656,-0.32461392879486084,1.883543848991394
304895.18819363596,-0.021399343386292458,-0.08580896258354187,0.1972222477197647,0.76774001121521,1.440834641456604,1.466705322265625,0.7587700486183167,-0.014248296618461609
304895.1921936359,-0.006139273289591074,-0.13558533787727356,0.049706947058439255,0.6489797234535217,1.5434212684631348,2.0571303367614746,1.9170382022857666,1.3763550519943237
304895.19619363593,0.01618577539920807,-0.16950607299804688,-0.1545792818069458,0.35736796259880066,1.3433804512023926,2.31378173828125,2.965657949447632,2.9545257091522217
304895.20019363594,0.019588708877563477,-0.19210483133792877,-0.18142633140087128,0.39233914017677307,1.5184897184371948,2.6696605682373047,3.462801933288574,3.496020793914795
304895.20419363596,0.045194655656814575,-0.014899860136210918,-0.1226753294467926,-0.10774592310190201,-0.08062760531902313,-0.0180218443274498,0.35355210304260254,1.2387932538986206
304895.2081936359,0.09462502598762512,0.07716383785009384,-0.01800292171537876,-0.003192378208041191,-0.030382763594388962,-0.1649394929409027,0.03661789372563362,0.8718275427818298
304895.21219363593,0.1421467512845993,0.19284482300281525,0.1490369290113449,0.16477124392986298,0.09270618855953217,-0.18319186568260193,-0.1432502418756485,0.4071551561355591
304895.21619363595,0.16233572363853455,0.2189105898141861,0.16982291638851166,0.17789308726787567,0.0817585363984108,-0.2610044479370117,-0.3113188147544861,0.3723207712173462
304895.22019363596,0.12900200486183167,0.28794264793395996,0.48607146739959717,0.6931281685829163,0.9208125472068787,1.2316005229949951,1.5679575204849243,2.0718655586242676
304895.2241936359,0.21340800821781158,0.5195742249488831,0.8774300813674927,1.2460464239120483,1.631139874458313,1.891818881034851,2.1786701679229736,2.6683709621429443
304895.22819363594,0.2854299247264862,0.7277359366416931,1.2180770635604858,1.729589581489563,2.203770637512207,2.3117380142211914,2.425467014312744,2.602494239807129
304895.23219363595,0.32485103607177734,0.8321099877357483,1.3949949741363525,1.9836938381195068,2.5719242095947266,2.676149845123291,2.799278974533081,3.0906991958618164
304895.23619363597,0.21014297008514404,0.5500980019569397,0.8790575265884399,0.9887374043464661,0.7775306105613708,0.3416578471660614,-0.03318529203534126,-0.03404916822910309
304895.2401936359,0.3249526619911194,0.8111196756362915,1.0715714693069458,0.9303683638572693,0.5020512342453003,0.19854529201984406,0.3740823268890381,1.9373801946640015
304895.24419363594,0.4153437912464142,1.0002143383026123,1.1063257455825806,0.6710312366485596,0.09474346786737442,0.06779120862483978,0.9487694501876831,4.456590175628662
304895.24819363595,0.47242724895477295,1.1417338848114014,1.2542178630828857,0.7488756775856018,0.059080999344587326,0.02491341345012188,1.042265772819519,5.040676116943359
304895.25219363597,0.27003994584083557,0.5246346592903137,0.3033798933029175,-0.11191944777965546,0.052067410200834274,1.1180437803268433,2.6229395866394043,1.6356230974197388
304895.2561936359,0.3943204879760742,0.6580377817153931,0.1619311422109604,-0.1492386758327484,0.698045551776886,1.9464552402496338,3.328354835510254,1.0454615354537964
304895.26019363594,0.48430153727531433,0.7003554105758667,-0.05277463421225548,-0.12806545197963715,1.4708733558654785,2.5280044078826904,3.083545684814453,0.09384825825691223
304895.26419363596,0.5503152012825012,0.7962051033973694,-0.07269953191280365,-0.1777723878622055,1.6847970485687256,2.94634747505188,3.6736667156219482,0.05859367921948433
304895.268193636,0.2922173738479614,0.23584973812103271,-0.18927882611751556,0.5503317713737488,1.3957985639572144,0.5447147488594055,-0.3026120364665985,1.4265027046203613
304895.27219363593,0.4051319360733032,0.22365079820156097,-0.12373144179582596,1.1114797592163086,1.5127087831497192,0.24112719297409058,0.8144930005073547,2.310981035232544
304895.27619363595,0.478392630815506,0.1660337746143341,0.0059616779908537865,1.615490198135376,1.3309093713760376,-0.09665682911872864,2.2006351947784424,2.7839255332946777
304895.28019363596,0.5427923798561096,0.18490485846996307,0.009352123364806175,1.8589428663253784,1.5211714506149292,-0.2145407348871231,2.492053747177124,3.267009973526001
304895.284193636,0.26788994669914246,-0.0622495599091053,0.3608410954475403,1.0802422761917114,-0.08146399259567261,0.8743963241577148,1.5647287368774414,-0.1943870633840561
304895.28819363593,0.36650410294532776,-0.1181226596236229,0.7545057535171509,1.1246833801269531,0.01156044751405716,1.7657806873321533,1.054862380027771,0.5291033387184143
304895.29219363595,0.42766305804252625,-0.1603125035762787,1.1296441555023193,0.9493840932846069,0.17418169975280762,2.4829483032226562,0.07150581479072571,1.5995270013809204
304895.29619363596,0.48654457926750183,-0.18505659699440002,1.2933310270309448,1.075534462928772,0.1753145009279251,2.909039258956909,0.05746016651391983,1.7585428953170776
304895.300193636,0.2148420512676239,-0.05002446100115776,0.8643199801445007,-0.030346838757395744,0.9929057359695435,0.8766661286354065,0.07172831892967224,1.8547265529632568
304895.30419363594,0.2761402130126953,-0.003403459209948778,1.1628352403640747,-0.11381969600915909,1.6734874248504639,0.5091736316680908,1.3516535758972168,1.4104411602020264
304895.30819363595,0.3044798672199249,0.06504375487565994,1.3145476579666138,-0.19090478122234344,2.212733030319214,-0.0051562185399234295,2.6724724769592285,0.43491384387016296
304895.31219363597,0.3447974622249603,0.07402543723583221,1.504878044128418,-0.2320948839187622,2.531043767929077,-0.0700501874089241,3.1620378494262695,0.4664636552333832
304895.316193636,0.1377355307340622,0.27186980843544006,0.36142414808273315,0.5575962066650391,0.602556586265564,0.8277765512466431,0.8779861330986023,1.1840393543243408
304895.32019363594,0.19047458469867706,0.47414907813072205,0.3926260471343994,1.0703266859054565,0.6053507328033447,1.766022801399231,0.5754918456077576,2.757728338241577
304895.32419363596,0.21987289190292358,0.5420724749565125,0.46081119775772095,1.2297050952911377,0.6969665884971619,2.043241024017334,0.6775798201560974,3.157357692718506
304895.32819363597,0.0699765756726265,0.4514716565608978,-0.028264882043004036,1.1589514017105103,-0.11459076404571533,1.6782809495925903,-0.06614115089178085,1.5387886762619019
304895.3321936359,0.06936506181955338,0.7208871841430664,-0.12398726493120193,1.5190879106521606,0.2556590437889099,1.407650113105774,1.1782455444335938,0.924822986125946
304895.33619363594,0.055422890931367874,0.9295360445976257,-0.2242087423801422,1.665697693824768,0.7578962445259094,0.7474624514579773,2.5572493076324463,0.09368222951889038
304895.34019363596,0.061977434903383255,1.0653239488601685,-0.26122790575027466,1.9197152853012085,0.8552628755569458,0.8206566572189331,2.968780279159546,-0.030675560235977173
304895.344193636,-0.005732283461838961,0.5984563231468201,0.048665087670087814,0.33410412073135376,1.19367516040802,-0.27112528681755066,1.2652438879013062,1.4249484539031982
304895.34819363593,-0.024431852623820305,0.7978218793869019,0.34450680017471313,0.1540120244026184,1.6522284746170044,0.5849525332450867,0.8728474378585815,2.085354804992676
304895.35219363595,-0.044629402458667755,0.9121619462966919,0.6799331307411194,-0.08526510000228882,1.8901773691177368,1.633866786956787,0.26566919684410095,2.40128231048584
304895.35619363596,-0.05103844776749611,1.03584623336792,0.7778564691543579,-0.1236858069896698,2.174208402633667,1.8640191555023193,0.23542039096355438,2.8243660926818848
304895.360193636,-0.045837219804525375,0.4050854742527008,0.7281064987182617,0.0023435147013515234,0.16494695842266083,1.640373945236206,0.8331815004348755,-0.2953416109085083
304895.36419363593,-0.07163643836975098,0.44779714941978455,1.1307896375656128,0.384922057390213,-0.025140684098005295,1.5743852853775024,1.8254389762878418,1.3216768503189087
304895.36819363595,-0.09206604957580566,0.4181937873363495,1.4545670747756958,0.8435173034667969,-0.18994353711605072,1.0991803407669067,2.6453490257263184,3.644808292388916
304895.37219363597,-0.10554088652133942,0.47164785861968994,1.654136061668396,0.9642292261123657,-0.24733057618141174,1.253149390220642,3.0775434970855713,4.044956207275391
304895.376193636,-0.044867757707834244,0.07255032658576965,0.7068702578544617,1.0375620126724243,0.4048060476779938,-0.22159311175346375,0.39795175194740295,1.731888771057129
304895.38019363594,-0.055265821516513824,0.0014425860717892647,0.7539676427841187,1.4850435256958008,1.3051506280899048,0.39142030477523804,0.2332146316766739,1.422055959701538
304895.38419363595,-0.05898776277899742,-0.08799178898334503,0.6687251925468445,1.7483609914779663,2.231010675430298,1.2198585271835327,0.11666183173656464,0.747370183467865
304895.38819363597,-0.06712649762630463,-0.10247959196567535,0.7542174458503723,2.0275869369506836,2.5665876865386963,1.3610042333602905,0.071853868663311,0.7499608397483826
304895.392193636,-0.0015675483737140894,-0.10637795925140381,0.06242557615041733,0.5133950710296631,1.0823112726211548,1.750734567642212,2.550318717956543,1.0876374244689941
304895.39619363594,0.020807823166251183,-0.11229776591062546,-0.06668858230113983,0.29963764548301697,0.9635664224624634,1.7705662250518799,3.9076623916625977,2.346780776977539
304895.40019363596,0.04679729789495468,-0.09188729524612427,-0.2166033685207367,-0.02977485954761505,0.6116835474967957,1.3664816617965698,4.504226207733154,3.339191436767578
304895.404193636,0.05382436886429787,-0.10328254848718643,-0.26223573088645935,-0.056096240878105164,0.6702113747596741,1.5658243894577026,5.256886005401611,3.995168685913086
304895.408193636,0.06552626192569733,0.050518009811639786,-0.03258563578128815,-0.1377885639667511,-0.30415377020835876,-0.21930159628391266,-0.01262104231864214,0.08113455027341843
304895.41219363594,0.12370678782463074,0.18634745478630066,0.1928810179233551,0.18733860552310944,0.10370346158742905,0.1725209504365921,0.45646071434020996,0.4992665946483612
304895.41619363596,0.17809665203094482,0.3335604965686798,0.46489447355270386,0.5997233986854553,0.6966263055801392,0.7681258916854858,1.1000949144363403,1.2195442914962769
304895.420193636,0.20311108231544495,0.38086849451065063,0.5323687791824341,0.6763107776641846,0.7964436411857605,0.8500898480415344,1.2018916606903076,1.292822003364563
304895.424193636,0.15066786110401154,0.3838993012905121,0.6442424654960632,0.943955659866333,1.2591087818145752,1.5618809461593628,1.8831477165222168,1.9590437412261963
304895.42819363595,0.24237178266048431,0.6391712427139282,1.089258074760437,1.458925485610962,1.7134281396865845,1.8548439741134644,1.8684699535369873,1.803898572921753
304895.43219363596,0.318401575088501,0.852594256401062,1.4746090173721313,1.8182947635650635,1.9522068500518799,1.7509303092956543,1.3219351768493652,1.1495263576507568
304895.436193636,0.36243826150894165,0.9730120897293091,1.686516284942627,2.120760440826416,2.2514450550079346,2.0260558128356934,1.520246982574463,1.2496917247772217
304895.440193636,0.25873398780822754,0.6560266017913818,0.7816246151924133,0.568911075592041,0.1878734827041626,-0.04075416177511215,0.22572901844978333,0.8961530327796936
304895.44419363595,0.4043145775794983,0.9830746054649353,1.0833631753921509,0.6338837742805481,0.06928376853466034,0.06814879179000854,0.7587881088256836,2.23592472076416
304895.44819363597,0.46419215202331543,1.1341193914413452,1.2484779357910156,0.7397031188011169,0.0736936405301094,0.047413114458322525,0.7753669023513794,2.56022572517395
304895.452193636,0.27129927277565,0.5202199220657349,0.3122575283050537,-0.21116319298744202,0.017187554389238358,0.9876636862754822,2.1560657024383545,1.4566223621368408
304895.45619363594,0.3927566409111023,0.6384729146957397,0.17971086502075195,-0.1617257446050644,0.7224828004837036,1.8335614204406738,2.046220064163208,1.056283950805664
304895.46019363595,0.47948575019836426,0.673235297203064,-0.030778514221310616,-0.031088510528206825,1.5449517965316772,2.546837091445923,1.4275320768356323,0.4102252125740051
304895.46419363597,0.5448947548866272,0.7640435695648193,-0.043944939970970154,-0.06341581791639328,1.7594729661941528,2.9171104431152344,1.6284488439559937,0.34542837738990784
304895.468193636,0.29608985781669617,0.235548734664917,-0.12941747903823853,0.5342446565628052,1.4814585447311401,0.5578890442848206,-0.36289742588996887,1.3619662523269653
304895.47219363594,0.4141310453414917,0.20864354074001312,-0.09764150530099869,1.1559184789657593,1.501459002494812,0.31322991847991943,0.5126747488975525,2.3607633113861084
304895.47619363596,0.4924216568470001,0.134701207280159,-0.003488397691398859,1.7528069019317627,1.2441468238830566,-0.009193320758640766,1.6844871044158936,2.9819533824920654
304895.480193636,0.5588193535804749,0.14806918799877167,-0.011933187022805214,2.0106494426727295,1.4078823328018188,-0.03877447918057442,1.949129581451416,3.4698667526245117
304895.484193636,0.27377575635910034,-0.05517403408885002,0.35689711570739746,1.0669529438018799,-0.0729718878865242,0.7315315008163452,1.874275803565979,-0.4310757517814636
304895.48819363595,0.3687266707420349,-0.12603728473186493,0.7846846580505371,1.1290665864944458,-0.10101424902677536,1.650834083557129,1.3617353439331055,0.938144326210022
304895.49219363596,0.42507225275039673,-0.19077451527118683,1.2035638093948364,0.9541482925415039,-0.04168908670544624,2.501960039138794,0.4237619638442993,2.9493181705474854
304895.496193636,0.4832993447780609,-0.2218720018863678,1.3732997179031372,1.083363652229309,-0.10619563609361649,2.880706310272217,0.4213397800922394,3.212775468826294
304895.500193636,0.21225634217262268,-0.03930835798382759,0.8146982789039612,-0.18030142784118652,0.9663370847702026,0.8201659917831421,-0.012537083588540554,1.725207805633545
304895.50419363595,0.27392223477363586,0.011822888627648354,1.1295803785324097,-0.26730820536613464,1.7795796394348145,0.40179362893104553,1.3655447959899902,1.427106261253357
304895.50819363596,0.30309802293777466,0.08113333582878113,1.318720817565918,-0.28798943758010864,2.46700119972229,-0.135423943400383,2.908456563949585,0.7000561952590942
304895.512193636,0.34364867210388184,0.09442149102687836,1.5102001428604126,-0.347301721572876,2.841174364089966,-0.217874214053154,3.3400723934173584,0.759175717830658
304895.516193636,0.13427910208702087,0.20617401599884033,0.44163987040519714,0.3995160460472107,0.7051509022712708,0.5852701663970947,1.12932550907135,0.493597149848938
304895.52019363595,0.1587696075439453,0.4066568911075592,0.33500030636787415,0.9268267750740051,0.4532707929611206,1.666599154472351,0.7012326717376709,1.7343740463256836
304895.52419363597,0.16112034022808075,0.5955739617347717,0.12775284051895142,1.4407508373260498,0.059263676404953,2.7605507373809814,0.16557490825653076,2.8927316665649414
304895.528193636,0.1821649819612503,0.6800882816314697,0.14067856967449188,1.6540186405181885,0.039696868509054184,3.188420295715332,0.04327816143631935,3.3816447257995605
304895.532193636,0.04859974980354309,0.4877335727214813,-0.11793771386146545,1.1182740926742554,-0.04216034337878227,1.03267502784729,1.758944034576416,0.2448056936264038
304895.53619363595,0.04218433052301407,0.7461606860160828,-0.10309973359107971,1.2704825401306152,0.7149680852890015,0.7145322561264038,3.861473321914673,0.39873239398002625
304895.54019363597,0.026690805330872536,0.9476212859153748,-0.05904079228639603,1.190307378768921,1.5852493047714233,0.19956667721271515,5.524085521697998,0.7943244576454163
304895.544193636,0.028805064037442207,1.0788906812667847,-0.07045333087444305,1.3536114692687988,1.8226871490478516,0.18255871534347534,6.467766761779785,0.7881040573120117
304895.548193636,-0.018497226759791374,0.5748400092124939,0.21824684739112854,0.08527161926031113,1.4056437015533447,0.3550891876220703,0.151284322142601,2.5336661338806152
304895.55219363596,-0.042070791125297546,0.7291609644889832,0.5829677581787109,-0.010155336931347847,1.6014716625213623,1.3442647457122803,-0.044702887535095215,2.3289976119995117
304895.556193636,-0.064385786652565,0.7957959175109863,0.9525312781333923,-0.10556214302778244,1.453908920288086,2.365530014038086,-0.09223035722970963,1.4809575080871582
304895.560193636,-0.07441230863332748,0.8998867273330688,1.0921522378921509,-0.13952673971652985,1.6689605712890625,2.755657434463501,-0.22952121496200562,1.6477768421173096
304895.564193636,-0.05272893235087395,0.32217085361480713,0.8387091159820557,0.22049082815647125,-0.02271682769060135,1.119928240776062,1.7791850566864014,0.05273813381791115
304895.56819363596,-0.07146716862916946,0.3325378894805908,1.2114014625549316,0.7428376078605652,-0.0018094592960551381,0.6377600431442261,2.304457902908325,1.6483495235443115
304895.572193636,-0.08064167201519012,0.2840189039707184,1.4569616317749023,1.2986512184143066,0.10010794550180435,-0.14579275250434875,2.3464558124542236,3.453437328338623
304895.576193636,-0.09322293102741241,0.3178936243057251,1.6713218688964844,1.4886481761932373,0.08099085092544556,-0.20709636807441711,2.7478694915771484,3.991476535797119
304895.580193636,-0.04259075969457626,-0.003048821585252881,0.5383039712905884,1.2631018161773682,1.0019166469573975,0.20656567811965942,-0.00514113437384367,0.8044443726539612
304895.58419363596,-0.042044784873723984,-0.06652069091796875,0.49275732040405273,1.4594593048095703,1.7619521617889404,1.0161973237991333,0.4460383951663971,0.3686200976371765
304895.588193636,-0.034567780792713165,-0.13011795282363892,0.3343811631202698,1.41627836227417,2.3473713397979736,1.9146862030029297,1.1180177927017212,-0.09146717190742493
304895.592193636,-0.03764171525835991,-0.1504712849855423,0.3733551502227783,1.6111624240875244,2.7474238872528076,2.2156543731689453,1.193869709968567,-0.3101494312286377
304895.596193636,0.013510072603821754,-0.08275312930345535,-0.14266154170036316,0.18027915060520172,0.740549623966217,1.5315688848495483,1.9949909448623657,1.8396780490875244
304895.60019363597,0.042420342564582825,-0.0665195882320404,-0.17574284970760345,0.023586364462971687,0.3755621314048767,1.1323555707931519,1.79432213306427,2.0897605419158936
304895.604193636,0.07408754527568817,-0.026568522676825523,-0.16840609908103943,-0.14772090315818787,-0.1569470316171646,0.34198373556137085,1.0535887479782104,1.7604155540466309
304895.608193636,0.08406969904899597,-0.030272262170910835,-0.20099444687366486,-0.2066766768693924,-0.22104576230049133,0.3797708749771118,1.2049744129180908,2.0875353813171387
304895.612193636,0.08526699244976044,0.12062756717205048,0.1192173883318901,0.02802370861172676,-0.017068978399038315,-0.03473806008696556,-0.1300470381975174,0.06665097922086716
304895.616193636,0.15273351967334747,0.29591915011405945,0.4385747015476227,0.5327048897743225,0.6855713725090027,0.7311689853668213,1.0953737497329712,1.6621885299682617
304895.620193636,0.2138240784406662,0.47606775164604187,0.7843123078346252,1.1144752502441406,1.5211561918258667,1.643323540687561,2.582728147506714,3.31491756439209
304895.624193636,0.24375054240226746,0.5436303615570068,0.8956698775291443,1.278653621673584,1.7448301315307617,1.9009459018707275,2.9398462772369385,4.052500247955322
304895.628193636,0.19801542162895203,0.504464864730835,0.9096212387084961,1.1868553161621094,1.4514106512069702,1.5640445947647095,1.2833093404769897,1.0098350048065186
304895.632193636,0.3129521608352661,0.8027433753013611,1.4291775226593018,1.7814702987670898,2.026542901992798,1.8119362592697144,1.2825566530227661,0.822314441204071
304895.636193636,0.35931211709976196,0.9247951507568359,1.65158212184906,2.044881820678711,2.351520538330078,2.0972628593444824,1.5227748155593872,0.9424601197242737
304895.640193636,0.22417470812797546,0.5924862027168274,0.8211206793785095,0.6519078612327576,0.2723774015903473,-0.19530653953552246,-0.267904669046402,0.14843404293060303
304895.64419363596,0.3421349823474884,0.8277050256729126,0.9224449992179871,0.4812258780002594,0.023669077083468437,0.07136603444814682,0.7255172729492188,1.533708095550537
304895.648193636,0.43455255031585693,0.9793819785118103,0.8734275698661804,0.1754281222820282,-0.25564971566200256,0.4904605448246002,1.8786176443099976,2.8861050605773926
304895.652193636,0.49326246976852417,1.1139625310897827,0.988798975944519,0.1703675538301468,-0.344720721244812,0.49536484479904175,2.203221321105957,3.436877727508545
304895.656193636,0.27607646584510803,0.47709691524505615,0.12798576056957245,-0.2157135009765625,0.4370180666446686,1.6550873517990112,1.7409820556640625,0.5101611018180847
304895.66019363597,0.3996851444244385,0.5570290088653564,0.01740095391869545,0.029665492475032806,1.3141233921051025,2.0603718757629395,1.3885070085525513,0.5694531798362732
304895.664193636,0.4873095452785492,0.5587431788444519,-0.12166856974363327,0.3688948154449463,2.225508689880371,2.114325761795044,0.7010141611099243,0.7595028281211853
304895.668193636,0.5545994639396667,0.6325335502624512,-0.14440730214118958,0.4191770553588867,2.5481834411621094,2.4451775550842285,0.7255905866622925,0.7808560729026794
304895.672193636,0.315558522939682,0.12958063185214996,-0.07565950602293015,1.015053629875183,1.1640350818634033,0.029155639931559563,1.4686259031295776,1.960621953010559
304895.67619363597,0.47549939155578613,0.13312219083309174,0.004953297320753336,1.6873230934143066,1.3887749910354614,0.03284958377480507,3.520794630050659,2.6829586029052734
304895.680193636,0.548500120639801,0.15372902154922485,-0.0007232350180856884,1.9589486122131348,1.6292108297348022,0.02314065210521221,4.023226737976074,3.154116630554199
304895.684193636,0.21753253042697906,-0.029148098081350327,0.23064367473125458,0.8034859299659729,-0.08990423381328583,0.42278575897216797,2.969141721725464,0.16329391300678253
304895.688193636,0.26435497403144836,-0.10076075047254562,0.5462825894355774,0.7920448780059814,-0.13141757249832153,1.4497501850128174,1.016715407371521,0.3159640431404114
304895.692193636,0.3503318130970001,-0.13112486898899078,0.9548975825309753,0.6853184700012207,0.24429720640182495,2.037263870239258,0.35868939757347107,1.6908164024353027
304895.696193636,0.39734703302383423,-0.1392659693956375,1.2978894710540771,0.3927251696586609,0.7360286712646484,2.317429304122925,-0.4482233226299286,3.2256722450256348
304895.700193636,0.45056140422821045,-0.1667371690273285,1.490322470664978,0.4367305338382721,0.8242138028144836,2.682419776916504,-0.6213397979736328,3.7631757259368896
304895.704193636,0.19472303986549377,-0.00416160374879837,0.8173633813858032,-0.13581281900405884,1.3917534351348877,0.17816062271595,1.116679310798645,1.197374701499939
304895.708193636,0.24668334424495697,0.09330534189939499,1.0006437301635742,-0.0345967598259449,1.7714452743530273,0.0437246672809124,1.9636365175247192,0.4575524926185608
304895.712193636,0.26877352595329285,0.20522361993789673,1.033245325088501,0.15315835177898407,1.8914042711257935,-0.061159200966358185,2.5968739986419678,-0.3633708357810974
304895.716193636,0.30470922589302063,0.2355699986219406,1.174521803855896,0.15695524215698242,2.1703174114227295,-0.14959876239299774,3.000901699066162,-0.6390975117683411
304895.720193636,0.11367194354534149,0.3611869812011719,0.16957810521125793,0.9247553944587708,0.1547860950231552,1.3644657135009766,-0.05685409530997276,2.042001724243164
304895.724193636,0.1545795202255249,0.6027697324752808,0.10815999656915665,1.6400574445724487,-0.01312014739960432,2.272768974304199,-0.4297742247581482,3.248476266860962
304895.728193636,0.17853593826293945,0.6936638355255127,0.12842018902301788,1.8792245388031006,-0.00872656051069498,2.626938581466675,-0.5535972714424133,3.8969576358795166
304895.732193636,0.043025460094213486,0.3643054962158203,-0.13896803557872772,0.8688279390335083,-0.1594192087650299,0.9562826156616211,0.5346221923828125,0.4361763000488281
304895.736193636,0.03393945097923279,0.5665730237960815,-0.16944405436515808,0.978123128414154,0.4124947786331177,0.2948603630065918,1.8191512823104858,-0.4316960573196411
304895.740193636,0.02230801060795784,0.8090551495552063,-0.08294959366321564,0.9207057952880859,1.2103619575500488,-0.08143783360719681,2.0540618896484375,1.1079723834991455
304895.744193636,0.003323678160086274,0.9788962006568909,0.060874320566654205,0.677940309047699,2.027766704559326,-0.44257187843322754,1.9095276594161987,3.085675001144409
304895.748193636,0.0014869129518046975,1.1094034910202026,0.06506169587373734,0.7557401061058044,2.3245255947113037,-0.5999500751495361,2.206542491912842,3.63041353225708
304895.752193636,-0.027489330619573593,0.5347172021865845,0.4167840778827667,-0.19250938296318054,1.3107354640960693,1.0196712017059326,0.012707211077213287,1.7036283016204834
304895.756193636,-0.04577265679836273,0.661958634853363,0.8424149751663208,-0.1748838573694229,1.1555663347244263,2.05574893951416,0.603952944278717,1.0964434146881104
304895.760193636,-0.061800792813301086,0.7001949548721313,1.2496840953826904,-0.05945336073637009,0.7355902194976807,2.9481067657470703,1.4148390293121338,0.22149790823459625
304895.764193636,-0.07068168371915817,0.7914491891860962,1.4248367547988892,-0.07648726552724838,0.8004916310310364,3.4452733993530273,1.5737998485565186,0.09913169592618942
304895.76819363603,-0.05799401178956032,0.2171124517917633,0.8829908967018127,0.709338366985321,-0.06336595118045807,0.43626919388771057,1.6198921203613281,1.6452600955963135
304895.772193636,-0.08240681141614914,0.25967472791671753,1.3172248601913452,1.2654834985733032,0.060154784470796585,0.26665279269218445,2.112940788269043,3.0621743202209473
304895.776193636,-0.09524022042751312,0.30286911129951477,1.5135146379470825,1.4570839405059814,0.03175511956214905,0.31489068269729614,2.5264058113098145,3.525831937789917
304895.780193636,-0.039794884622097015,0.016420187428593636,0.5759029388427734,1.1373010873794556,0.9977565407752991,0.06605562567710876,-0.4205078184604645,0.8807882070541382
304895.784193636,-0.039086420089006424,-0.03499006852507591,0.5189909934997559,1.397621512413025,1.7798010110855103,1.110030174255371,0.10913366079330444,0.6524375081062317
304895.788193636,-0.02844105288386345,-0.09269624948501587,0.34420114755630493,1.4507763385772705,2.430903196334839,2.26979660987854,0.9434674978256226,0.3916075527667999
304895.792193636,-0.031753361225128174,-0.11028048396110535,0.38306087255477905,1.6670290231704712,2.784369468688965,2.6355345249176025,1.0368707180023193,0.32002827525138855
304895.796193636,0.01116530317813158,-0.08604657649993896,-0.07590021938085556,0.22443850338459015,0.7342656254768372,1.3370431661605835,2.0012381076812744,1.884619951248169
304895.800193636,0.04304010048508644,-0.06767786294221878,-0.08787581324577332,0.05708209425210953,0.40725359320640564,0.9958213567733765,1.8071588277816772,2.108086585998535
304895.804193636,0.07729880511760712,-0.025703929364681244,-0.07933097332715988,-0.167729452252388,-0.0740194246172905,0.30708470940589905,1.151702880859375,1.7833969593048096
304895.808193636,0.08794679492712021,-0.02672368288040161,-0.09497867524623871,-0.20122560858726501,-0.12280143052339554,0.3461822271347046,1.3017545938491821,2.142592668533325
304895.812193636,0.08617450296878815,0.11553400754928589,0.11903800815343857,0.11933878809213638,-0.08467638492584229,-0.21808581054210663,-0.12382577359676361,-0.2550235390663147
304895.816193636,0.1535656750202179,0.2947613298892975,0.43103060126304626,0.5734795928001404,0.6835956573486328,0.7269078493118286,2.0383756160736084,1.0821681022644043
304895.820193636,0.21472729742527008,0.47852838039398193,0.7673064470291138,1.088727355003357,1.5761768817901611,1.8259292840957642,4.548673629760742,2.67185115814209
304895.824193636,0.2446221113204956,0.5465174913406372,0.8799512386322021,1.2480807304382324,1.8011784553527832,2.1128060817718506,5.297468185424805,3.08329439163208
304895.828193636,0.17134971916675568,0.4370538592338562,0.7512199282646179,1.125234842300415,1.4646186828613281,1.4453340768814087,1.5468651056289673,1.3177180290222168
304895.832193636,0.2691739797592163,0.7137070298194885,1.1341155767440796,1.5018062591552734,1.5739097595214844,1.2725489139556885,0.9593741297721863,0.5370315313339233
304895.836193636,0.34829220175743103,0.9455670714378357,1.4168950319290161,1.669703722000122,1.3773937225341797,0.761619508266449,-0.0340096689760685,-0.46399375796318054
304895.840193636,0.3969290852546692,1.07926607131958,1.6182732582092285,1.9171899557113647,1.5837583541870117,0.8455894589424133,-0.06232612580060959,-0.6672396063804626
304895.84419363603,0.24265848100185394,0.5900668501853943,0.6530453562736511,0.3212825357913971,-0.19906088709831238,-0.062488578259944916,0.353163480758667,1.5966049432754517
304895.848193636,0.36238551139831543,0.7894678711891174,0.6650540232658386,0.0852130725979805,-0.16020262241363525,0.6127617359161377,1.6676937341690063,2.2529773712158203
304895.852193636,0.4527926445007324,0.9010902643203735,0.5457153916358948,-0.213022843003273,-0.02891954593360424,1.4321789741516113,3.0640017986297607,2.4659934043884277
304895.856193636,0.5154871940612793,1.0277608633041382,0.6165066361427307,-0.2763445973396301,-0.05885178968310356,1.6415181159973145,3.5171186923980713,2.8683505058288574
304895.86019363604,0.2862023115158081,0.4005781412124634,-0.04599775746464729,-0.07532201707363129,0.9475347995758057,1.6723209619522095,0.7504527568817139,-0.7038065791130066
304895.864193636,0.4085947871208191,0.4450570046901703,-0.11671663820743561,0.3585961163043976,1.5961967706680298,1.6427313089370728,0.28766730427742004,0.5406279563903809
304895.868193636,0.4939025640487671,0.4202865958213806,-0.17943477630615234,0.8787670731544495,2.1031556129455566,1.2341604232788086,-0.2309706211090088,2.2572479248046875
304895.872193636,0.5606581568717957,0.47420841455459595,-0.2189755141735077,1.0068120956420898,2.415130615234375,1.3824822902679443,-0.4292425811290741,2.670762538909912
304895.87619363604,0.2859690189361572,0.08229228109121323,0.013537641614675522,1.1265947818756104,0.6989208459854126,-0.02387465536594391,1.3205947875976562,1.8244482278823853
304895.880193636,0.39264824986457825,0.031718332320451736,0.2759706974029541,1.5312291383743286,0.41360214352607727,0.47158899903297424,2.1234705448150635,1.2699393033981323
304895.884193636,0.45891472697257996,-0.04092651978135109,0.5718499422073364,1.7435230016708374,-0.0016423332272097468,1.1148672103881836,2.618734836578369,0.343509703874588
304895.888193636,0.5221570134162903,-0.04791853949427605,0.6566759347915649,1.9882724285125732,-0.06079917028546333,1.2481698989868164,3.036914348602295,0.3087584972381592
304895.89219363604,0.2636891305446625,-0.08741378784179688,0.8729968667030334,0.4303007125854492,0.23140156269073486,1.8041142225265503,0.0807126834988594,1.4816672801971436
304895.896193636,0.3848700225353241,-0.13600322604179382,1.4088555574417114,0.4084157943725586,0.7297317385673523,2.4607088565826416,-0.041639573872089386,3.0574302673339844
304895.900193636,0.4448056221008301,-0.15684674680233002,1.6180652379989624,0.4739131033420563,0.8168764114379883,2.9078261852264404,-0.10720828920602798,3.5534110069274902
304895.90419363603,0.19731293618679047,-0.026560794562101364,0.8724806308746338,-0.21483930945396423,1.3898816108703613,0.18252114951610565,1.0273443460464478,1.0949581861495972
304895.908193636,0.24831947684288025,0.0744793638586998,1.025971531867981,-0.0793524831533432,1.8569769859313965,0.1804276555776596,1.9134618043899536,0.8298224806785583
304895.912193636,0.26875030994415283,0.19606831669807434,1.0317416191101074,0.12583531439304352,2.0539615154266357,0.2280263751745224,2.652547836303711,0.48362600803375244
304895.916193636,0.30437690019607544,0.22748662531375885,1.17031729221344,0.12827256321907043,2.3847599029541016,0.1899367719888687,3.0568113327026367,0.42175623774528503
304895.92019363603,0.11337307840585709,0.2910842299461365,0.24351875483989716,0.7201226949691772,0.2498176395893097,1.2777727842330933,0.12700243294239044,2.0339016914367676
304895.924193636,0.1294579952955246,0.5310167074203491,0.1374838650226593,1.3260656595230103,0.01978890411555767,2.185154438018799,0.05120415240526199,2.5247292518615723
304895.928193636,0.12608252465724945,0.750310480594635,-0.01826814003288746,1.8379064798355103,-0.2032894492149353,2.8251500129699707,0.15519966185092926,2.3989791870117188
304895.932193636,0.14248938858509064,0.8535792231559753,-0.04148287698626518,2.136193037033081,-0.31724813580513,3.305999994277954,0.06753270328044891,2.811093330383301
304895.93619363604,0.031602613627910614,0.5528006553649902,-0.17297938466072083,0.9570537805557251,0.40529388189315796,0.38098424673080444,1.6235562562942505,-0.5084776282310486
304895.940193636,0.023112870752811432,0.7888968586921692,-0.0871313139796257,0.9185309410095215,1.3471977710723877,0.1798923909664154,1.9948683977127075,0.8291600346565247
304895.944193636,0.0068510607816278934,0.9443252682685852,0.0676274299621582,0.691421627998352,2.317889928817749,-0.03659587725996971,1.9528063535690308,2.6317570209503174
304895.948193636,0.007216944359242916,1.0733875036239624,0.0740194246172905,0.7717423439025879,2.6757872104644775,-0.1149524450302124,2.2747654914855957,2.9858551025390625
304895.95219363604,-0.03197941929101944,0.5386285185813904,0.41936054825782776,-0.2172282338142395,1.2008521556854248,1.0771574974060059,-0.49070075154304504,1.662829875946045
304895.956193636,-0.0526699535548687,0.6591005921363831,0.8318734169006348,-0.2314194291830063,0.9512444734573364,2.0414044857025146,0.8134212493896484,0.8660274147987366
304895.960193636,-0.06949549913406372,0.6884034872055054,1.2175076007843018,-0.14753036201000214,0.42180320620536804,2.8324472904205322,2.7346715927124023,-0.23108722269535065
304895.964193636,-0.07955633103847504,0.7803853750228882,1.394021987915039,-0.18719381093978882,0.4748848080635071,3.268744945526123,3.030695676803589,-0.4411821961402893
304895.96819363604,-0.05577244237065315,0.23482567071914673,0.8692866563796997,0.5158172845840454,-0.3563300371170044,0.5981149077415466,1.8486998081207275,1.3607441186904907
304895.972193636,-0.07236745208501816,0.21675296127796173,1.118635654449463,1.138748049736023,0.07199200242757797,0.14190945029258728,1.7354764938354492,2.289281129837036
304895.976193636,-0.08096765726804733,0.1516178995370865,1.205660343170166,1.7543314695358276,0.663544774055481,-0.4370783865451813,1.124094843864441,2.814659595489502
304895.98019363603,-0.09142792224884033,0.17012204229831696,1.3736716508865356,2.000495672225952,0.7587719559669495,-0.576233983039856,1.2581514120101929,3.296912431716919
304895.98419363605,-0.027744092047214508,-0.06843151897192001,0.3206052780151367,1.061832308769226,1.4016375541687012,1.1780478954315186,0.2119896560907364,0.12376023083925247
304895.988193636,-0.03168800473213196,-0.14001598954200745,0.3496643900871277,1.383658766746521,2.278191566467285,2.348659038543701,0.9401496648788452,0.32504183053970337
304895.992193636,-0.03579654544591904,-0.15722621977329254,0.40192586183547974,1.6002671718597412,2.609518527984619,2.664477586746216,1.029807209968567,0.11203715950250626
304895.99619363603,0.010163974948227406,-0.09491505473852158,-0.06859003752470016,0.15911614894866943,0.7484855651855469,1.4755549430847168,1.8601912260055542,2.025933027267456
304896.000193636,0.04011940583586693,-0.07489870488643646,-0.15170714259147644,-0.03503846749663353,0.377254456281662,1.1400010585784912,1.852748990058899,2.424578905105591
304896.004193636,0.07337097078561783,-0.03174417093396187,-0.2054385244846344,-0.2666536569595337,-0.15028207004070282,0.4436408579349518,1.3768723011016846,2.198925256729126
304896.008193636,0.08333905041217804,-0.03931788355112076,-0.24970212578773499,-0.3173433840274811,-0.21591287851333618,0.48069459199905396,1.5551038980484009,2.6186561584472656
304896.01219363604,0.08522113412618637,0.1254168599843979,0.14063261449337006,0.044813431799411774,0.10149246454238892,-0.07184727489948273,0.03452443704009056,-0.13294366002082825
304896.016193636,0.15267857909202576,0.3004184067249298,0.4470980763435364,0.5346747636795044,0.77070552110672,0.9064045548439026,1.1683608293533325,1.25469172000885
304896.020193636,0.213582843542099,0.4806995391845703,0.7784027457237244,1.0793989896774292,1.5379160642623901,2.0601956844329834,2.5696749687194824,2.9161477088928223
304896.024193636,0.24351850152015686,0.5479782819747925,0.8903898000717163,1.242464542388916,1.7535035610198975,2.3453922271728516,2.9061479568481445,3.3502895832061768
304896.02819363604,0.1714601069688797,0.434843510389328,0.7970684766769409,1.2000960111618042,1.562055230140686,1.5540565252304077,1.7616486549377441,1.4678751230239868
304896.032193636,0.27167657017707825,0.6976417303085327,1.209977626800537,1.551262378692627,1.6451787948608398,1.3457525968551636,1.2548856735229492,0.7057822942733765
304896.036193636,0.3544849455356598,0.9103996157646179,1.4968397617340088,1.6691228151321411,1.4042350053787231,0.814700186252594,0.38341301679611206,-0.25800034403800964
304896.040193636,0.4029183089733124,1.042940616607666,1.7141121625900269,1.9126347303390503,1.602436900138855,0.895429253578186,0.3715687692165375,-0.4919787347316742
304896.04419363604,0.24832092225551605,0.5996907353401184,0.6796464323997498,0.3443809151649475,-0.19783353805541992,-0.06167600303888321,0.48085179924964905,1.5320440530776978
304896.048193636,0.3667944073677063,0.7886847853660583,0.689917266368866,0.1424349695444107,-0.14754179120063782,0.7266502380371094,1.7016286849975586,2.365449905395508
304896.052193636,0.4548889100551605,0.8840301632881165,0.5624741911888123,-0.14207643270492554,0.018222976475954056,1.7095695734024048,2.9664361476898193,2.773833751678467
304896.05619363603,0.5167373418807983,1.0009931325912476,0.6328251957893372,-0.1664164960384369,-0.0006765992729924619,1.928540587425232,3.4067673683166504,3.3348116874694824
304896.06019363605,0.2867242991924286,0.4068357050418854,-0.03264867514371872,-0.027535784989595413,0.9361568093299866,1.768880009651184,0.6770410537719727,-0.22342456877231598
304896.064193636,0.4090688228607178,0.4489775598049164,-0.13052105903625488,0.38995134830474854,1.6778088808059692,1.711788535118103,0.35992270708084106,0.7545908689498901
304896.068193636,0.49339956045150757,0.420335978269577,-0.22014173865318298,0.8936028480529785,2.285916328430176,1.2655123472213745,0.06911581754684448,2.1448616981506348
304896.07219363604,0.5596349835395813,0.47362640500068665,-0.26197168231010437,1.0181082487106323,2.6413252353668213,1.4161092042922974,-0.05662131682038307,2.392106056213379
304896.07619363605,0.2937665283679962,0.08118701726198196,0.01475596334785223,1.076175570487976,0.7233679294586182,-0.34351983666419983,1.3201760053634644,2.148411989212036
304896.080193636,0.40075281262397766,0.03251928463578224,0.26689785718917847,1.5832237005233765,0.4413291811943054,0.3561250865459442,2.1868815422058105,1.204542875289917
304896.084193636,0.4665828049182892,-0.03757340833544731,0.565530002117157,1.8883185386657715,0.019531670957803726,1.2773131132125854,2.7193095684051514,-0.22681540250778198
304896.08819363604,0.5294636487960815,-0.04430120810866356,0.6485429406166077,2.172154664993286,-0.023494252935051918,1.4485365152359009,3.2298614978790283,-0.36885371804237366
304896.09219363605,0.24856166541576385,-0.09206315875053406,0.6928219199180603,0.4835057854652405,0.09882975369691849,1.6944888830184937,-0.06987444311380386,0.9692586660385132
304896.096193636,0.32718002796173096,-0.1167629063129425,1.0865713357925415,0.32787954807281494,0.7962307333946228,1.7996233701705933,0.3472500145435333,2.3606019020080566
304896.100193636,0.3675439953804016,-0.12209612131118774,1.398850440979004,0.08123081177473068,1.613202452659607,1.5081101655960083,1.149904489517212,3.5115091800689697
304896.10419363604,0.4176909923553467,-0.14021725952625275,1.6024833917617798,0.06560583412647247,1.832944393157959,1.7098487615585327,1.1842902898788452,4.194144248962402
304896.10819363606,0.17739568650722504,0.06402013450860977,0.7398149371147156,-0.13170653581619263,1.43259596824646,-0.2583240270614624,2.020805835723877,-0.03673605993390083
304896.112193636,0.21949532628059387,0.19520223140716553,0.8166158199310303,0.18985216319561005,1.557699203491211,0.12289842963218689,2.268932342529297,0.24972137808799744
304896.11619363603,0.2334318906068802,0.3359823226928711,0.754478931427002,0.5994887948036194,1.3694097995758057,0.7480573654174805,1.9740267992019653,0.8887664675712585
304896.12019363604,0.2644253075122833,0.3823276460170746,0.8523598313331604,0.6881453394889832,1.5728614330291748,0.8103182315826416,2.3155198097229004,0.9301695823669434
304896.12419363606,0.08976326882839203,0.4438110589981079,-0.00692781712859869,1.1303666830062866,-0.13040754199028015,1.6182526350021362,-0.19857528805732727,1.9762052297592163
304896.128193636,0.11844632774591446,0.7172955274581909,-0.10138601064682007,1.7565189599990845,-0.18607933819293976,2.3447649478912354,0.030794711783528328,2.239762544631958
304896.13219363603,0.137434720993042,0.8238658308982849,-0.11394622921943665,2.0341713428497314,-0.24935013055801392,2.706042766571045,-0.07118309289216995,2.651780843734741
304896.13619363605,0.033514637500047684,0.5627216696739197,-0.18346007168293,0.8858704566955566,0.40925362706184387,0.2668028771877289,1.894985556602478,-0.5406359434127808
304896.140193636,0.01925310306251049,0.8036836385726929,-0.06156269088387489,0.8579515218734741,1.2064913511276245,-0.027055025100708008,2.8645081520080566,1.5165969133377075
304896.144193636,-0.00262946798466146,0.9688457250595093,0.12472905218601227,0.645343005657196,1.9822036027908325,-0.2856462001800537,3.356301784515381,4.148401737213135
304896.14819363604,-0.004716524854302406,1.09822416305542,0.14746567606925964,0.7280616760253906,2.312514543533325,-0.41738954186439514,4.0651631355285645,4.758267402648926
304896.15219363605,-0.02882304973900318,0.5094457864761353,0.4332737326622009,-0.197861909866333,1.2889758348464966,0.9881442189216614,-0.3402369022369385,1.8103421926498413
304896.156193636,-0.05140543729066849,0.6402046084403992,0.8784122467041016,-0.1660567969083786,1.1210105419158936,1.8007243871688843,0.44745978713035583,1.0269807577133179
304896.160193636,-0.07221845537424088,0.6921507716178894,1.2944101095199585,-0.05338827893137932,0.6945412755012512,2.4415035247802734,1.4770100116729736,-0.15152569115161896
304896.16419363604,-0.08184235543012619,0.7859230041503906,1.4850208759307861,-0.08834438025951385,0.7443456649780273,2.852377414703369,1.6647788286209106,-0.23893406987190247
304896.16819363605,-0.052197154611349106,0.23810186982154846,0.9056454300880432,0.5710197687149048,-0.19377177953720093,0.5019074082374573,2.209700107574463,1.2116575241088867
304896.172193636,-0.07159845530986786,0.21043361723423004,1.1422909498214722,1.172816276550293,0.12915250658988953,0.28624704480171204,2.0016191005706787,2.1127007007598877
304896.176193636,-0.08460184186697006,0.1312626302242279,1.224301815032959,1.7212830781936646,0.640227198600769,0.06679586321115494,1.276786208152771,2.731304883956909
304896.18019363604,-0.09649979323148727,0.14716827869415283,1.3932033777236938,1.979191780090332,0.7123830914497375,0.016852611675858498,1.3974673748016357,3.2140848636627197
304896.18419363606,-0.035145893692970276,-0.04335200414061546,0.3595251142978668,1.0071464776992798,1.250127911567688,0.8847635388374329,-0.11110819876194,-0.06486281752586365
304896.188193636,-0.030612219125032425,-0.1035633385181427,0.26634645462036133,1.0657293796539307,1.6859114170074463,1.902730107307434,0.9142953753471375,0.5799584984779358
304896.19219363603,-0.01744581013917923,-0.14836464822292328,0.10232185572385788,0.9016808867454529,1.9028878211975098,2.795178174972534,2.0872585773468018,1.6256695985794067
304896.19619363605,-0.019790327176451683,-0.18005059659481049,0.10312026739120483,1.0226733684539795,2.173910140991211,3.256753921508789,2.4526379108428955,1.7754746675491333
304896.20019363606,0.027859538793563843,-0.0647820383310318,-0.11327451467514038,-0.07986299693584442,0.2091665118932724,0.7505338788032532,1.5910943746566772,2.400101661682129
304896.204193636,0.06805399805307388,-0.00897751934826374,-0.09834066033363342,-0.15469449758529663,-0.06684596836566925,0.39698129892349243,0.8853926062583923,1.5710701942443848
304896.20819363603,0.10899984836578369,0.06941798329353333,-0.03629958629608154,-0.18096669018268585,-0.34623560309410095,-0.07163204252719879,-0.1546730101108551,0.10371875017881393
304896.21219363605,0.12468581646680832,0.07569028437137604,-0.053842268884181976,-0.22750169038772583,-0.4613891839981079,-0.13473542034626007,-0.27032291889190674,0.06673383712768555
304896.21619363606,0.10791141539812088,0.2051609456539154,0.2847025692462921,0.3993731141090393,0.46863871812820435,0.4694809913635254,0.7733845114707947,0.5986177325248718
304896.220193636,0.1834007203578949,0.41046345233917236,0.6562555432319641,0.9615989327430725,1.2606019973754883,1.6468172073364258,1.8639886379241943,1.8943793773651123
304896.22419363604,0.24923434853553772,0.6037566661834717,1.0203497409820557,1.5229136943817139,2.0230929851531982,2.8410749435424805,2.8453328609466553,3.0390329360961914
304896.22819363605,0.2840067446231842,0.690983772277832,1.1681851148605347,1.7414305210113525,2.3548340797424316,3.306262731552124,3.319406270980835,3.5641937255859375
304896.23219363607,0.21934574842453003,0.5674394965171814,0.930757999420166,1.1779946088790894,1.0925047397613525,0.8102487921714783,0.3877140283584595,0.09160282462835312
304896.236193636,0.3455956280231476,0.8915562033653259,1.408576488494873,1.6285752058029175,1.3082339763641357,0.6418548822402954,-0.09470813721418381,-0.19334577023983002
304896.24019363604,0.39779287576675415,1.025046467781067,1.6331297159194946,1.8924694061279297,1.5240793228149414,0.7590357065200806,-0.1143588051199913,-0.3546597957611084
304896.24419363606,0.2442258894443512,0.5622475147247314,0.6807196736335754,0.3522428572177887,-0.17187367379665375,-0.21580642461776733,0.49155375361442566,1.4559342861175537
304896.248193636,0.3650628328323364,0.7714985013008118,0.7006309628486633,0.1213352382183075,-0.11671368777751923,0.5349806547164917,1.7730389833450317,2.136504650115967
304896.252193636,0.457334041595459,0.8989127278327942,0.5878356695175171,-0.19358789920806885,0.022071566432714462,1.4200373888015747,3.0202109813690186,2.4341113567352295
304896.25619363604,0.520953357219696,1.028278112411499,0.6588985323905945,-0.24734088778495789,-0.0061008078046143055,1.640819787979126,3.550421953201294,2.861584186553955
304896.26019363606,0.282000333070755,0.3897223174571991,-0.04706339165568352,-0.12363804876804352,0.9903445243835449,1.7858715057373047,0.7204093933105469,-0.5724188089370728
304896.264193636,0.4080331027507782,0.43464526534080505,-0.11557622998952866,0.2997186779975891,1.7306642532348633,1.7120600938796997,0.31932908296585083,1.3556721210479736
304896.26819363603,0.4978594481945038,0.4093334376811981,-0.1669989377260208,0.8220223784446716,2.330597162246704,1.2075213193893433,-0.13415400683879852,3.998992681503296
304896.27219363605,0.5644785165786743,0.463182270526886,-0.19360458850860596,0.9482924938201904,2.6529886722564697,1.3590376377105713,-0.2443535327911377,4.4819207191467285
304896.27619363606,0.29199710488319397,0.07458848506212234,-0.02914852648973465,0.9972010850906372,0.7913616299629211,-0.04387633875012398,2.102874994277954,1.8760324716567993
304896.280193636,0.4004586338996887,0.004340377636253834,0.23802387714385986,1.4734323024749756,0.4464496970176697,0.5430315136909485,4.2615509033203125,1.1664942502975464
304896.28419363603,0.46851104497909546,-0.08642569929361343,0.5564135909080505,1.7936004400253296,-0.08316345512866974,1.316250205039978,5.841074466705322,-0.03769994154572487
304896.28819363605,0.5318939685821533,-0.1001468226313591,0.6395176649093628,2.073876142501831,-0.12053246051073074,1.4763787984848022,6.932165145874023,-0.1000354066491127
304896.29219363607,0.24671217799186707,-0.07214493304491043,0.699159562587738,0.5107198357582092,0.04783240333199501,1.9145723581314087,0.18711136281490326,1.0321885347366333
304896.296193636,0.3240413963794708,-0.08420246839523315,1.0897566080093384,0.2889477610588074,0.6766954660415649,1.978438138961792,0.30941593647003174,2.1010642051696777
304896.30019363604,0.3654395043849945,-0.07769417017698288,1.3871296644210815,-0.05784770846366882,1.3952997922897339,1.5912935733795166,0.5824333429336548,2.8792476654052734
304896.30419363605,0.41502031683921814,-0.09296926110982895,1.598918080329895,-0.07423876971006393,1.6025985479354858,1.8031996488571167,0.5742356777191162,3.361156463623047
304896.30819363607,0.17693136632442474,0.042642995715141296,0.7389049530029297,-0.14266525208950043,1.4691178798675537,-0.2120785266160965,1.9437450170516968,-0.3571680784225464
304896.312193636,0.21845746040344238,0.18395018577575684,0.8305189609527588,0.17915920913219452,1.5842573642730713,0.20510146021842957,2.1683480739593506,0.07084573805332184
304896.31619363604,0.23237185180187225,0.33661678433418274,0.7745773196220398,0.5884487628936768,1.3738542795181274,0.8071570992469788,1.881406307220459,0.9471678733825684
304896.32019363606,0.2631583511829376,0.3851577043533325,0.8797236680984497,0.6738553047180176,1.5525970458984375,0.8759040236473083,2.202880859375,0.9652765393257141
304896.3241936361,0.09179066866636276,0.37192457914352417,0.05160871893167496,0.9601775407791138,-0.17508114874362946,1.7056924104690552,-0.37863945960998535,2.1577389240264893
304896.328193636,0.0989965870976448,0.6225965023040771,-0.0661601647734642,1.470080852508545,-0.17109821736812592,1.972558617591858,0.5354875326156616,1.656307578086853
304896.33219363604,0.09010443836450577,0.8382813334465027,-0.1861802488565445,1.8353477716445923,-0.06975775957107544,1.8453956842422485,1.7722716331481934,0.5773199796676636
304896.33619363606,0.10099277645349503,0.9572360515594482,-0.23509816825389862,2.0870797634124756,-0.11810482293367386,2.125316619873047,1.9966002702713013,0.6418470144271851
304896.3401936361,0.015309622511267662,0.5587025880813599,-0.07638254016637802,0.6926835775375366,0.9031168222427368,-0.36138206720352173,2.03777813911438,0.4309166669845581
304896.34419363603,-0.00045925125596113503,0.7908824682235718,0.12403663992881775,0.5305042266845703,1.5832680463790894,-0.04159969463944435,1.7701448202133179,2.0387837886810303
304896.34819363605,-0.02223595790565014,0.9428775310516357,0.3711124658584595,0.24278128147125244,2.144296169281006,0.4876592755317688,1.0726851224899292,3.6484334468841553
304896.35219363606,-0.025779085233807564,1.0811069011688232,0.4227041006088257,0.23984301090240479,2.4806952476501465,0.5311735272407532,1.1609126329421997,4.336965560913086
304896.3561936361,-0.04816525802016258,0.4778180718421936,0.7450616359710693,-0.15230615437030792,0.5924056172370911,1.8445011377334595,0.3286009430885315,0.29148831963539124
304896.36019363604,-0.07419106364250183,0.6663659811019897,1.2289093732833862,-0.07241329550743103,0.43875980377197266,2.8600070476531982,1.3031539916992188,-0.20607896149158478
304896.36419363605,-0.08600868284702301,0.7690477967262268,1.419485330581665,-0.11141043156385422,0.5251349806785583,3.3605449199676514,1.4391618967056274,-0.24170686304569244
304896.36819363607,-0.049381475895643234,0.23652836680412292,0.8611199259757996,0.5420886278152466,-0.40234044194221497,0.5169474482536316,1.7814997434616089,1.2159603834152222
304896.372193636,-0.06832200288772583,0.20930267870426178,1.09413743019104,1.109439730644226,0.0313502699136734,0.1033875122666359,1.7167257070541382,2.131042242050171
304896.37619363604,-0.0799335241317749,0.13404349982738495,1.1803838014602661,1.6414718627929688,0.6532230377197266,-0.33373361825942993,1.195763349533081,2.7452332973480225
304896.38019363605,-0.08985129743814468,0.1477629393339157,1.34940505027771,1.8789514303207397,0.7581601142883301,-0.49942710995674133,1.3383879661560059,3.2153477668762207
304896.38419363607,-0.026395171880722046,-0.04798649996519089,0.36372897028923035,1.0414507389068604,1.3754743337631226,0.6996315121650696,-0.1588308960199356,-0.1890587955713272
304896.388193636,-0.020832255482673645,-0.10156790167093277,0.27613261342048645,1.1063029766082764,1.8407450914382935,1.6529817581176758,0.9765089750289917,0.9649854898452759
304896.39219363604,-0.00801464170217514,-0.14067956805229187,0.12004533410072327,0.9374744296073914,2.0085854530334473,2.5627381801605225,2.2442870140075684,2.7031707763671875
304896.39619363606,-0.008792251348495483,-0.16804572939872742,0.11786770820617676,1.0618538856506348,2.3072285652160645,2.938838481903076,2.6452465057373047,2.9444477558135986
304896.4001936361,0.027170909568667412,-0.054914239794015884,-0.1304175853729248,-0.009265929460525513,0.2933117747306824,0.7792499661445618,1.574114203453064,1.7174493074417114
304896.40419363603,0.06492355465888977,0.0014543969882652164,-0.12993140518665314,-0.09893299639225006,0.010604560375213623,0.3389354646205902,0.9252084493637085,1.347691535949707
304896.40819363605,0.10450171679258347,0.08451226353645325,-0.07855220139026642,-0.16465719044208527,-0.3274865746498108,-0.2340211421251297,-0.05593188852071762,0.5246681571006775
304896.41219363606,0.11892445385456085,0.09542863816022873,-0.10143915563821793,-0.215864360332489,-0.41106486320495605,-0.3509301543235779,-0.14373202621936798,0.5847240090370178
304896.4161936361,0.1072113886475563,0.20515841245651245,0.2874559760093689,0.34212496876716614,0.4897632896900177,0.6408432126045227,1.0840984582901,0.8602567911148071
304896.42019363603,0.18296833336353302,0.4141480326652527,0.6911450624465942,0.922045111656189,1.2214326858520508,1.5840266942977905,3.4824960231781006,2.132817506790161
304896.42419363605,0.24895372986793518,0.6148821711540222,1.0997223854064941,1.509169578552246,1.9392435550689697,2.490499496459961,5.774380683898926,3.2790682315826416
304896.42819363606,0.28388214111328125,0.7008695006370544,1.2556869983673096,1.726516842842102,2.2328672409057617,2.869708299636841,6.719555377960205,3.828204393386841
304896.4321936361,0.19034349918365479,0.4932146668434143,0.8963302969932556,1.080739974975586,1.232770323753357,1.025288462638855,0.6056944727897644,0.1347435712814331
304896.43619363604,0.2994173765182495,0.7622778415679932,1.1578840017318726,1.2132415771484375,0.9991268515586853,0.6564916968345642,0.2679162919521332,0.3734796345233917
304896.44019363605,0.38763922452926636,0.9697732329368591,1.2790627479553223,1.1414021253585815,0.48760876059532166,0.13918575644493103,-0.01973872259259224,0.9165608882904053
304896.44419363607,0.44088801741600037,1.1088345050811768,1.4546984434127808,1.2991193532943726,0.5412213802337646,0.0610753633081913,-0.15217691659927368,0.982121467590332
304896.4481936361,0.257460355758667,0.571571409702301,0.49156075716018677,-0.024484023451805115,-0.22548243403434753,0.20591332018375397,1.2727303504943848,1.9036086797714233
304896.45219363604,0.38428041338920593,0.7418072819709778,0.40687060356140137,-0.11567436903715134,0.10541385412216187,1.1882039308547974,2.0514028072357178,1.8079744577407837
304896.45619363606,0.4779238998889923,0.82011878490448,0.21376833319664001,-0.15487323701381683,0.6232182383537292,2.199023723602295,2.5642142295837402,1.1842107772827148
304896.46019363607,0.5443742871284485,0.9341689944267273,0.23468273878097534,-0.19883348047733307,0.6950308680534363,2.5651662349700928,3.021804094314575,1.3659064769744873
304896.4641936361,0.29438769817352295,0.324095219373703,-0.08552636951208115,0.2324950397014618,1.4357765913009644,1.333770990371704,-0.02140752412378788,0.3772542178630829
304896.46819363604,0.4138484299182892,0.33591902256011963,-0.12872463464736938,0.7973106503486633,1.8772358894348145,0.9185842275619507,0.22001998126506805,1.673776626586914
304896.47219363606,0.4943869113922119,0.2896594703197479,-0.15467588603496552,1.419804334640503,2.0495851039886475,0.25850242376327515,0.6808480024337769,2.96597957611084
304896.4761936361,0.5623138546943665,0.32458245754241943,-0.17459505796432495,1.6124111413955688,2.367856502532959,0.20528240501880646,0.7177274823188782,3.5463311672210693
304896.4801936361,0.2761254608631134,0.017377644777297974,0.15527111291885376,1.227689504623413,0.21267516911029816,-0.015567341819405556,1.998486876487732,0.8217228651046753
304896.48419363605,0.3772663176059723,-0.060654416680336,0.5111613273620605,1.4530510902404785,-0.002592547098174691,1.014501690864563,2.139756202697754,0.6959797739982605
304896.48819363606,0.439246267080307,-0.14741893112659454,0.8853604793548584,1.4343669414520264,-0.22813494503498077,2.145826816558838,1.8178927898406982,0.537672221660614
304896.4921936361,0.4994138181209564,-0.17422355711460114,1.0162327289581299,1.6257561445236206,-0.2759269177913666,2.499767303466797,2.117393732070923,0.53680819272995
304896.4961936361,0.24654191732406616,-0.06587335467338562,0.8993604183197021,0.10292106866836548,0.767154335975647,1.133073091506958,-0.017627673223614693,1.9820772409439087
304896.50019363605,0.3567782938480377,-0.07613562047481537,1.372686743736267,0.017475232481956482,1.5338784456253052,1.3311102390289307,0.45298847556114197,2.7969040870666504
304896.50419363606,0.41176387667655945,-0.0917666032910347,1.5735782384872437,0.009357644245028496,1.7492718696594238,1.5684500932693481,0.4861065149307251,3.2583038806915283
304896.5081936361,0.17679715156555176,0.04991760104894638,0.7284695506095886,-0.04318390414118767,1.3837112188339233,-0.11264678090810776,1.9412659406661987,-0.05251182243227959
304896.51219363604,0.21932362020015717,0.1807846873998642,0.8090148568153381,0.2438623011112213,1.488484501838684,0.32653889060020447,2.203423023223877,0.9943698048591614
304896.51619363605,0.23357899487018585,0.3274379372596741,0.755031406879425,0.6072008609771729,1.3101410865783691,0.9375066161155701,1.938093900680542,2.6444544792175293
304896.52019363607,0.2646384835243225,0.37331512570381165,0.8589798808097839,0.6798572540283203,1.5061627626419067,1.0207322835922241,2.291022539138794,2.811678409576416
304896.5241936361,0.09173955768346786,0.36655300855636597,0.08581595867872238,0.9694169759750366,-0.11673925071954727,1.735784888267517,-0.23190680146217346,2.3185935020446777
304896.52819363604,0.10033905506134033,0.6310693621635437,-0.051855120807886124,1.4329512119293213,-0.060225240886211395,2.054558038711548,0.5242688655853271,1.9027135372161865
304896.53219363606,0.092808797955513,0.8602672815322876,-0.22197140753269196,1.7453190088272095,0.083685003221035,1.9126086235046387,1.5413002967834473,0.890842616558075
304896.5361936361,0.1047639474272728,0.9846985936164856,-0.26423075795173645,2.0069661140441895,0.04611915349960327,2.2174887657165527,1.7479274272918701,0.9806163907051086
304896.5401936361,0.014289564453065395,0.5842025279998779,-0.0650004893541336,0.6490078568458557,1.0444077253341675,-0.19884613156318665,2.0065977573394775,0.5474929213523865
304896.54419363604,-0.00039683206705376506,0.7993012070655823,0.11302957683801651,0.47033658623695374,1.7413439750671387,-0.0009903082391247153,1.658894658088684,1.9726893901824951
304896.54819363606,-0.020108195021748543,0.9317687749862671,0.3506580889225006,0.14221736788749695,2.2579312324523926,0.4386448562145233,0.8614382743835449,3.413238525390625
304896.5521936361,-0.023680249229073524,1.0638511180877686,0.39890703558921814,0.1452932357788086,2.59580135345459,0.46138277649879456,0.9305089712142944,4.003254413604736
304896.5561936361,-0.040182698518037796,0.47842639684677124,0.598430871963501,-0.15867038071155548,0.7659103870391846,1.642544150352478,0.06688432395458221,0.38939011096954346
304896.56019363605,-0.06253065168857574,0.5568773150444031,0.9883930683135986,0.036272428929805756,0.42888176441192627,2.0015957355499268,2.5141587257385254,0.34430691599845886
304896.56419363606,-0.07890378683805466,0.5561913847923279,1.3073108196258545,0.34387221932411194,-0.057146523147821426,2.0152504444122314,5.389446258544922,0.4835500717163086
304896.5681936361,-0.09153316169977188,0.6280308365821838,1.4926657676696777,0.3943468928337097,-0.12267670035362244,2.2972488403320312,6.121708869934082,0.4699404537677765
304896.5721936361,-0.051459167152643204,0.15355242788791656,0.8704670071601868,0.8772062063217163,-0.012973088771104813,-0.1402101218700409,1.1853035688400269,1.9080578088760376
304896.57619363605,-0.06399241089820862,0.10538613051176071,0.9901909232139587,1.4211844205856323,0.6349409222602844,-0.08529448509216309,0.6462045311927795,2.0305869579315186
304896.58019363607,-0.06732209026813507,0.018027616664767265,0.9543699622154236,1.8443427085876465,1.3770712614059448,0.15666741132736206,-0.15113510191440582,1.580055832862854
304896.5841936361,-0.07697580009698868,0.020114624872803688,1.0747467279434204,2.124598741531372,1.6005054712295532,0.11132708191871643,-0.2658050060272217,1.8579093217849731
304896.5881936361,-0.01893184892833233,-0.09736369550228119,0.10898661613464355,0.792485237121582,1.403267502784729,1.675601840019226,1.2040983438491821,0.7036459445953369
304896.59219363605,-0.016831398010253906,-0.14137649536132812,0.03797775134444237,0.9203751683235168,1.913739800453186,2.722231149673462,2.3613593578338623,1.818414568901062
304896.59619363607,-0.020449237897992134,-0.16457687318325043,0.04099723696708679,1.0644493103027344,2.213289737701416,3.117276906967163,2.7512474060058594,2.017122268676758
304896.6001936361,0.016144653782248497,-0.06923002004623413,-0.15109695494174957,-0.10839854925870895,0.12510749697685242,0.872585654258728,1.5447062253952026,2.4397239685058594
304896.60419363604,0.050331179052591324,-0.03068278357386589,-0.13406215608119965,-0.15000970661640167,-0.06292280554771423,0.6685996055603027,1.411727786064148,2.1664624214172363
304896.60819363606,0.09543000161647797,0.07466583698987961,0.02025170437991619,-0.08791838586330414,-0.15419265627861023,0.16867561638355255,0.6514332294464111,0.8446167707443237
304896.6121936361,0.14122773706912994,0.19712479412555695,0.22482994198799133,0.05893445760011673,-0.02685331180691719,-0.18129436671733856,0.001885614707134664,-0.29893040657043457
304896.6161936361,0.1596510261297226,0.232394739985466,0.2730560898780823,0.053378570824861526,-0.0712035745382309,-0.385800302028656,-0.2597920298576355,-0.8110679984092712
304896.6201936361,0.15306055545806885,0.3605838716030121,0.6216645240783691,0.9065824151039124,1.1871798038482666,1.3827736377716064,1.6400604248046875,2.052077293395996
304896.62419363606,0.24739816784858704,0.6026294827461243,1.0679103136062622,1.5757931470870972,2.027172565460205,2.3556482791900635,2.6614229679107666,3.3772132396698
304896.6281936361,0.2839207351207733,0.6933082342147827,1.224606990814209,1.8147755861282349,2.336369514465332,2.722214460372925,3.06754994392395,3.9435575008392334
304896.6321936361,0.19204361736774445,0.5090102553367615,0.8567107319831848,1.1613595485687256,1.3270139694213867,1.0188534259796143,0.6416677832603455,-0.09065723419189453
304896.63619363605,0.29954347014427185,0.7896243333816528,1.1640352010726929,1.2819398641586304,1.1423158645629883,0.6687260270118713,0.40733009576797485,0.48512887954711914
304896.64019363606,0.38656356930732727,1.0070815086364746,1.349184513092041,1.1708354949951172,0.6949791312217712,0.159105584025383,0.18519580364227295,1.5882960557937622
304896.6441936361,0.43929722905158997,1.1497822999954224,1.5382680892944336,1.322761058807373,0.7523179054260254,0.09368238598108292,0.10431821644306183,1.6074726581573486
304896.6481936361,0.2618401050567627,0.557948112487793,0.5050651431083679,0.06173957511782646,-0.20467321574687958,0.339525431394577,1.572698712348938,2.620157480239868
304896.65219363605,0.3815574645996094,0.7220277786254883,0.42831841111183167,-0.06784089654684067,0.15462221205234528,1.2247517108917236,2.355681896209717,2.3567733764648438
304896.65619363607,0.4679689407348633,0.8016304969787598,0.24294285476207733,-0.17637261748313904,0.6999415755271912,2.1192409992218018,2.707038640975952,1.4305778741836548
304896.6601936361,0.5320505499839783,0.9123830795288086,0.27030646800994873,-0.22329838573932648,0.7874650955200195,2.468000888824463,3.18617582321167,1.5852210521697998
304896.6641936361,0.28567957878112793,0.3178838789463043,-0.09599742293357849,0.23106592893600464,1.262499451637268,1.2096006870269775,-0.16416774690151215,0.37447884678840637
304896.66819363605,0.41048115491867065,0.3219105899333954,-0.13141649961471558,0.8129279613494873,1.7359123229980469,0.8757175803184509,0.020920857787132263,1.9324712753295898
304896.67219363607,0.4977204501628876,0.26461711525917053,-0.1315818428993225,1.4474146366119385,1.9499132633209229,0.2860246002674103,0.4482833743095398,3.6319000720977783
304896.6761936361,0.5660534501075745,0.29728734493255615,-0.1706477850675583,1.6520639657974243,2.251554012298584,0.26464223861694336,0.39456045627593994,4.23823881149292
304896.6801936361,0.2835390567779541,0.007376210764050484,0.16856634616851807,1.1143947839736938,0.22542250156402588,0.06177998334169388,2.0108282566070557,0.9185607433319092
304896.68419363606,0.3816482126712799,-0.054298050701618195,0.5155393481254578,1.3307154178619385,0.0005246233777143061,1.0199470520019531,2.1048667430877686,0.691906750202179
304896.6881936361,0.4392614960670471,-0.12114105373620987,0.8807194828987122,1.3461352586746216,-0.22941996157169342,2.068681240081787,1.65529465675354,0.40265515446662903
304896.6921936361,0.49890366196632385,-0.14113157987594604,1.0088690519332886,1.5274006128311157,-0.33421021699905396,2.425572633743286,1.9044189453125,0.35599878430366516
304896.6961936361,0.23317424952983856,-0.10060116648674011,0.8085896968841553,0.20378567278385162,0.4437400996685028,1.4455426931381226,-0.12397947907447815,2.0047478675842285
304896.70019363606,0.30228501558303833,-0.0706922709941864,1.2001837491989136,0.026718562468886375,1.3401111364364624,1.0244029760360718,1.410215973854065,2.1431353092193604
304896.7041936361,0.33654114603996277,-0.023474551737308502,1.4723230600357056,-0.17568263411521912,2.266409158706665,0.2345966249704361,3.4595947265625,1.8234530687332153
304896.7081936361,0.38154953718185425,-0.021758243441581726,1.6913950443267822,-0.24049130082130432,2.612175226211548,0.236453577876091,3.9096086025238037,2.1110153198242188
304896.7121936361,0.15694685280323029,0.12297484278678894,0.578048586845398,0.08397280424833298,1.2456814050674438,0.049354612827301025,2.0347301959991455,-0.006007431074976921
304896.71619363606,0.18980862200260162,0.2952542304992676,0.5809499025344849,0.5720798969268799,1.0062263011932373,0.9083059430122375,1.6238093376159668,1.2461601495742798
304896.7201936361,0.19752690196037292,0.4699288606643677,0.47165608406066895,1.1203944683074951,0.45929253101348877,1.9481974840164185,0.7193630337715149,2.871459484100342
304896.7241936361,0.2234055995941162,0.5375275015830994,0.5279800295829773,1.2874846458435059,0.5081051588058472,2.230803966522217,0.7639142870903015,3.2737481594085693
304896.7281936361,0.06809744238853455,0.5132376551628113,-0.13727937638759613,1.2241541147232056,-0.06998807936906815,1.3706082105636597,0.39912155270576477,1.1766940355300903
304896.73219363607,0.08720529824495316,0.8219900131225586,-0.23145250976085663,1.8377934694290161,0.06352066993713379,1.7531291246414185,1.2714401483535767,0.8645623922348022
304896.7361936361,0.10146771371364594,0.9447190761566162,-0.27688637375831604,2.1051747798919678,0.07514067739248276,2.096355438232422,1.4388600587844849,1.0129776000976562
304896.7401936361,0.009976831264793873,0.5703044533729553,-0.10132470726966858,0.690392792224884,1.0077271461486816,-0.20656588673591614,1.7012629508972168,0.2379295527935028
304896.74419363606,-0.003668708261102438,0.8094787001609802,0.10394446551799774,0.48065969347953796,1.7909693717956543,0.10779955983161926,1.375761866569519,1.7462857961654663
304896.7481936361,-0.02059454843401909,0.9743908643722534,0.35885199904441833,0.10376345366239548,2.430424928665161,0.5739319324493408,0.5410771369934082,3.3057758808135986
304896.7521936361,-0.02364163286983967,1.1080347299575806,0.4080628752708435,0.11215271800756454,2.7846579551696777,0.6189587712287903,0.6296231746673584,3.8641886711120605
304896.7561936361,-0.04156437888741493,0.5154672861099243,0.6086070537567139,-0.39680197834968567,0.792108416557312,1.9568593502044678,-0.39598000049591064,0.21544009447097778
304896.76019363606,-0.0660485327243805,0.6301037669181824,0.9955502152442932,-0.24553005397319794,0.6409683227539062,2.443971633911133,0.48694679141044617,0.40728896856307983
304896.7641936361,-0.07685288786888123,0.532191812992096,1.2361392974853516,0.27034705877304077,0.1365809142589569,1.9095046520233154,1.847369909286499,1.2039337158203125
304896.7681936361,-0.08037720620632172,0.39063605666160583,1.40807044506073,0.883427619934082,-0.30382969975471497,0.9778442978858948,3.0776708126068115,2.4922373294830322
304896.7721936361,-0.0875057727098465,0.3849104940891266,1.5309858322143555,1.0568727254867554,-0.4798882305622101,0.9147164225578308,3.5993804931640625,2.869201421737671
304896.7761936361,-0.04379386454820633,0.08055287599563599,0.688051700592041,1.0206255912780762,0.4359857141971588,-0.3007115423679352,0.482525110244751,2.064063549041748
304896.7801936361,-0.04628468304872513,0.0216344203799963,0.7397498488426208,1.40315842628479,1.1935564279556274,0.4053840935230255,0.2693566679954529,1.4061651229858398
304896.7841936361,-0.04116279259324074,-0.06293199956417084,0.6608806252479553,1.6073044538497925,1.9193764925003052,1.310153841972351,0.07009666413068771,0.33395639061927795
304896.7881936361,-0.046247661113739014,-0.07439953088760376,0.7483160495758057,1.8369286060333252,2.232748031616211,1.4826395511627197,-0.0475798062980175,0.260448694229126
304896.7921936361,-0.003177794860675931,-0.09799105674028397,0.007465892471373081,0.39052820205688477,1.1241432428359985,1.7183756828308105,1.8385754823684692,1.393644094467163
304896.7961936361,0.008246509358286858,-0.14575348794460297,-0.07958205789327621,0.3328997492790222,1.2632313966751099,2.275782823562622,2.976799964904785,2.7339141368865967
304896.8001936361,0.008718063123524189,-0.16628748178482056,-0.08992381393909454,0.39103394746780396,1.4620691537857056,2.609931230545044,3.427927017211914,3.13494873046875
304896.8041936361,0.03159984201192856,-0.03360903263092041,-0.10980761796236038,-0.1474335789680481,-0.041238412261009216,0.27327391505241394,0.7509555220603943,1.5033173561096191
304896.8081936361,0.08304508030414581,0.08541399240493774,0.0704880952835083,-0.013608019798994064,-0.17289113998413086,-0.04501979053020477,0.021521765738725662,0.0006693436880595982
304896.8121936361,0.1420152336359024,0.18926472961902618,0.20892511308193207,0.14509493112564087,-0.01954784244298935,0.028759697452187538,0.07656194269657135,-0.03861091658473015
304896.8161936361,0.16293995082378387,0.21382775902748108,0.2335803508758545,0.15671005845069885,-0.054975397884845734,-0.06862930208444595,0.057812027633190155,-0.1353098303079605
304896.8201936361,0.12859393656253815,0.2905586361885071,0.47633862495422363,0.6856092214584351,1.0314676761627197,1.2956833839416504,1.7268298864364624,2.0399656295776367
304896.8241936361,0.21296218037605286,0.5237414836883545,0.8649852275848389,1.3002822399139404,1.829586148262024,2.040354013442993,2.5116336345672607,2.4765355587005615
304896.8281936361,0.2850024998188019,0.7324798703193665,1.2102032899856567,1.8589133024215698,2.4509925842285156,2.4984512329101562,2.8418264389038086,2.3273332118988037
304896.8321936361,0.32471027970314026,0.838703989982605,1.3864140510559082,2.130756378173828,2.84484601020813,2.891657590866089,3.3598945140838623,2.6960978507995605
304896.8361936361,0.2115834802389145,0.5657732486724854,0.8893774151802063,1.0000481605529785,0.8011490106582642,0.28426510095596313,-0.3289295434951782,0.025429895147681236
304896.8401936361,0.3232015073299408,0.8078845143318176,1.0978435277938843,0.928739070892334,0.45789453387260437,0.09417349100112915,0.2992340624332428,1.1831390857696533
304896.8441936361,0.4116353690624237,0.9683737754821777,1.1524708271026611,0.6347336769104004,-0.0683840662240982,-0.04746762290596962,1.443457841873169,2.6437318325042725
304896.8481936361,0.46708184480667114,1.1032073497772217,1.3038723468780518,0.7132812738418579,-0.10135376453399658,-0.14035779237747192,1.48224937915802,2.960256338119507
304896.8521936361,0.2725435495376587,0.5257436037063599,0.29909640550613403,-0.1345195174217224,-0.10637564957141876,1.0750538110733032,1.921926736831665,1.5772336721420288
304896.8561936361,0.3947349488735199,0.6511690616607666,0.15620334446430206,-0.12281205505132675,0.6080968379974365,1.8881367444992065,2.00907301902771,1.054979920387268
304896.8601936361,0.4839320778846741,0.6919198036193848,-0.05931706354022026,-0.05029062181711197,1.4347870349884033,2.4777672290802,1.5069702863693237,0.3005697429180145
304896.8641936361,0.5482752919197083,0.7835613489151001,-0.07798643410205841,-0.07170689105987549,1.6575452089309692,2.8881735801696777,1.7617955207824707,0.17477184534072876
304896.8681936361,0.28829440474510193,0.23356734216213226,-0.17265363037586212,0.5464957356452942,1.3317079544067383,0.5350460410118103,0.012280772440135479,1.2407480478286743
304896.8721936361,0.4061763286590576,0.21861952543258667,-0.11753211170434952,1.2300056219100952,1.5147151947021484,0.2137649804353714,0.8306214809417725,2.213451385498047
304896.8761936361,0.4849335551261902,0.15971317887306213,-0.008478191681206226,1.8912290334701538,1.395584225654602,-0.13194452226161957,1.8178815841674805,2.882185697555542
304896.8801936361,0.551293671131134,0.1777784526348114,-0.01347283460199833,2.175140142440796,1.6067957878112793,-0.25578993558883667,2.0792431831359863,3.3817083835601807
304896.8841936361,0.27108997106552124,-0.03677750751376152,0.35715579986572266,1.0194681882858276,-0.09124826639890671,0.7332764863967896,1.8529179096221924,-0.29089468717575073
304896.8881936361,0.3655320405960083,-0.11730628460645676,0.7528049945831299,1.090659499168396,-0.06155572086572647,1.868583083152771,1.267139196395874,0.5833116173744202
304896.8921936361,0.41968563199043274,-0.19665737450122833,1.1345181465148926,0.9406572580337524,0.07889377325773239,2.9447124004364014,0.20375309884548187,1.8105723857879639
304896.8961936361,0.4769706130027771,-0.22938470542430878,1.2940865755081177,1.0679218769073486,0.05559752508997917,3.4391160011291504,0.19350768625736237,2.0263938903808594
304896.90019363613,0.21133780479431152,-0.06537970900535583,0.8439639210700989,-0.051224302500486374,0.999826967716217,0.7488787174224854,0.31337371468544006,2.3447282314300537
304896.9041936361,0.27243149280548096,-0.00010980042861774564,1.1428827047348022,-0.0633632093667984,1.7582628726959229,0.37988463044166565,1.6691371202468872,1.5928897857666016
304896.9081936361,0.30204102396965027,0.08409542590379715,1.3063641786575317,-0.0438600517809391,2.3723340034484863,-0.1060391217470169,3.1547117233276367,0.30244213342666626
304896.9121936361,0.3425145447254181,0.0972287654876709,1.4920239448547363,-0.07525557279586792,2.7453439235687256,-0.18184855580329895,3.657487630844116,0.240142360329628
304896.91619363613,0.13451048731803894,0.2030942589044571,0.43531379103660583,0.3628099858760834,0.8038405776023865,0.5781387090682983,0.9505200386047363,0.6751280426979065
304896.9201936361,0.15873566269874573,0.4130436182022095,0.35017484426498413,0.9669607281684875,0.4012099802494049,1.7327871322631836,0.46138864755630493,2.1514384746551514
304896.9241936361,0.16095498204231262,0.6117399334907532,0.16996893286705017,1.592321515083313,-0.1746390461921692,2.904076337814331,-0.1501309722661972,3.5390851497650146
304896.9281936361,0.18175473809242249,0.7009084224700928,0.18714813888072968,1.8145557641983032,-0.2536699175834656,3.368556261062622,-0.31576547026634216,4.159085750579834
304896.93219363614,0.05256664752960205,0.507013738155365,-0.14213933050632477,1.1634435653686523,-0.08605511486530304,1.0804202556610107,0.9825265407562256,-0.00028923930949531496
304896.9361936361,0.046239420771598816,0.7914673686027527,-0.1365523785352707,1.3122022151947021,0.6515415906906128,0.49569258093833923,2.0656232833862305,0.09328525513410568
304896.9401936361,0.030111834406852722,1.012595295906067,-0.09627734869718552,1.2150001525878906,1.4999700784683228,-0.3139530122280121,2.988614320755005,0.5260423421859741
304896.9441936361,0.032182540744543076,1.1548277139663696,-0.11568780988454819,1.3824888467788696,1.7278757095336914,-0.43741875886917114,3.4802491664886475,0.4399232268333435
304896.94819363614,-0.02669651433825493,0.6170111298561096,0.33616238832473755,-0.027287909761071205,1.5092580318450928,0.5900864601135254,0.3641592562198639,2.2903788089752197
304896.9521936361,-0.049154605716466904,0.8995389342308044,0.6618488430976868,-0.12789329886436462,2.103142023086548,1.4083982706069946,0.28229159116744995,2.935155153274536
304896.9561936361,-0.055309709161520004,1.0401298999786377,0.756610631942749,-0.17082123458385468,2.4674015045166016,1.6130733489990234,0.2945743799209595,3.522526502609253
304896.9601936361,-0.04766266793012619,0.390550822019577,0.7461487650871277,-0.07115766406059265,0.2507685422897339,1.8801462650299072,0.9849982261657715,-0.4775716960430145
304896.9641936361,-0.07085198163986206,0.4389655888080597,1.1216604709625244,0.346434623003006,0.12322636693716049,1.7491991519927979,2.1599812507629395,0.3399156928062439
304896.9681936361,-0.08855611830949783,0.4168175160884857,1.3987054824829102,0.8618333339691162,0.0013359490549191833,1.181983232498169,3.1189119815826416,1.5369024276733398
304896.9721936361,-0.09996739029884338,0.47187528014183044,1.607715368270874,0.9833767414093018,-0.024953244253993034,1.3297325372695923,3.6881444454193115,1.7653591632843018
304896.97619363613,-0.06192749738693237,0.08673448115587234,0.9347919225692749,1.6087684631347656,0.7068586945533752,-0.09940481930971146,0.4944266974925995,2.4192705154418945
304896.9801936361,-0.0689881443977356,0.10320966690778732,1.0730829238891602,1.7763508558273315,0.7365708947181702,-0.11410551518201828,0.6309937238693237,2.81734299659729
304896.9841936361,-0.03572259470820427,-0.055368054658174515,0.4427438974380493,1.3851263523101807,1.8230034112930298,1.3063287734985352,0.03888964280486107,-0.6538604497909546
304896.98819363606,-0.04188249632716179,-0.0581040233373642,0.516858696937561,1.5686970949172974,2.043498992919922,1.377416968345642,-0.1287466436624527,-0.6373395919799805
304896.9921936361,-0.0094645069912076,-0.10318131744861603,0.034217577427625656,0.5023542046546936,1.1087076663970947,1.7226241827011108,1.5404616594314575,0.889308750629425
304896.99619363603,0.014039185829460621,-0.1122661605477333,-0.09022784233093262,0.26880234479904175,0.9638000130653381,1.7548511028289795,2.1442618370056152,2.082735776901245
304897.00019363605,0.043039485812187195,-0.09346168488264084,-0.23155343532562256,-0.0847703069448471,0.5703093409538269,1.434561848640442,2.3822882175445557,3.0578720569610596
304897.00419363606,0.04868703335523605,-0.11184068024158478,-0.28177645802497864,-0.11353463679552078,0.6323821544647217,1.6266614198684692,2.813048839569092,3.674440383911133
304897.0081936361,0.06748110800981522,0.03457352891564369,0.0048232111148536205,-0.17465507984161377,-0.3414140045642853,-0.357105016708374,-0.38024967908859253,-0.1206584945321083
304897.01219363604,0.12510663270950317,0.17508770525455475,0.22257448732852936,0.1792106330394745,0.07160714268684387,0.09124816954135895,0.014638403430581093,0.226234570145607
304897.01619363605,0.1785653829574585,0.3303292691707611,0.4787670075893402,0.6087015867233276,0.6665217280387878,0.7499415278434753,0.7519174218177795,1.0454373359680176
304897.02019363607,0.2034706026315689,0.37900277972221375,0.5417776107788086,0.697382926940918,0.7710432410240173,0.8121355175971985,0.7952250838279724,1.1005499362945557
304897.0241936361,0.15018518269062042,0.3845787048339844,0.6581542491912842,0.9912945032119751,1.3649674654006958,1.8567739725112915,1.9332811832427979,2.1299028396606445
304897.02819363604,0.24468374252319336,0.6338083148002625,1.0847159624099731,1.5258164405822754,1.8282848596572876,2.0554680824279785,1.8955695629119873,1.6030235290527344
304897.03219363606,0.32405292987823486,0.8393720984458923,1.4394267797470093,1.9094833135604858,2.062849998474121,1.7972484827041626,1.2409192323684692,0.4412026107311249
304897.0361936361,0.36896708607673645,0.9583285450935364,1.643653154373169,2.1618244647979736,2.389772415161133,2.044842481613159,1.4498826265335083,0.49820661544799805
304897.0401936361,0.23141443729400635,0.5806602239608765,0.7986758351325989,0.6394728422164917,0.2628287374973297,-0.20839200913906097,-0.25622329115867615,0.5967620611190796
304897.04419363604,0.3474390208721161,0.8195529580116272,0.9148544073104858,0.5021836161613464,0.03637126833200455,0.02867729961872101,0.900199294090271,2.0680906772613525
304897.04819363606,0.4361162483692169,0.9782054424285889,0.8823990225791931,0.23022489249706268,-0.1968614012002945,0.43769949674606323,2.332751512527466,3.531329393386841
304897.0521936361,0.4958321154117584,1.1150504350662231,1.0052359104156494,0.2415270060300827,-0.2996799051761627,0.42758944630622864,2.6455271244049072,4.176952838897705
304897.0561936361,0.3104788362979889,0.49125397205352783,0.053968094289302826,-0.17978522181510925,0.7144782543182373,1.8260143995285034,1.656175136566162,0.3267993628978729
304897.06019363605,0.4759047031402588,0.6801161766052246,-0.025260018184781075,-0.10571097582578659,1.48789644241333,2.7381250858306885,1.7491339445114136,-0.09322860836982727
304897.06419363606,0.546389102935791,0.7847954630851746,-0.028607776388525963,-0.1464226096868515,1.70002019405365,3.223095178604126,2.0270748138427734,-0.12109772861003876
304897.0681936361,0.29006093740463257,0.23743098974227905,-0.13698646426200867,0.5636163949966431,1.2798330783843994,0.5478432178497314,-0.3293187618255615,1.3109484910964966
304897.07219363604,0.405042827129364,0.21275021135807037,-0.10916593670845032,1.1461795568466187,1.403475046157837,0.10840823501348495,0.49650436639785767,2.383669853210449
304897.07619363605,0.4801146984100342,0.14012238383293152,-0.012431193143129349,1.6692001819610596,1.2445279359817505,-0.3959059715270996,1.5812532901763916,3.1091434955596924
304897.08019363607,0.5450347065925598,0.1545845866203308,-0.027950072661042213,1.9319676160812378,1.4265761375427246,-0.5436948537826538,1.8395299911499023,3.7183310985565186
304897.0841936361,0.2698513865470886,-0.04956783354282379,0.3609907627105713,1.0402610301971436,-0.25869783759117126,0.8227311968803406,1.8894351720809937,-0.11356265097856522
304897.08819363604,0.36482760310173035,-0.10113345086574554,0.776020884513855,1.0698455572128296,-0.21605920791625977,1.8514072895050049,1.3422603607177734,0.6168148517608643
304897.09219363605,0.4206123650074005,-0.14295658469200134,1.1772361993789673,0.8948343992233276,-0.0480036661028862,2.7870142459869385,0.36756762862205505,1.7301888465881348
304897.09619363607,0.47908759117126465,-0.16769100725650787,1.3505629301071167,1.0177648067474365,-0.08336338400840759,3.243044137954712,0.35239851474761963,1.8588547706604004
304897.1001936361,0.21793828904628754,-0.06432037800550461,0.9071947336196899,-0.09241853654384613,0.9256768226623535,0.7954322695732117,0.047655317932367325,2.1500535011291504
304897.10419363604,0.2774870693683624,-0.01796736568212509,1.1817402839660645,-0.21942004561424255,1.731711506843567,0.42980527877807617,1.4533767700195312,1.7162374258041382
304897.10819363606,0.30397894978523254,0.05929645895957947,1.2968322038650513,-0.2758316695690155,2.4318816661834717,-0.04639614373445511,3.016484022140503,0.8517463207244873
304897.1121936361,0.34386637806892395,0.06432629376649857,1.4749517440795898,-0.3467652201652527,2.8118693828582764,-0.15141034126281738,3.4640989303588867,0.8243142366409302
304897.1161936361,0.13429179787635803,0.201370507478714,0.4394395053386688,0.37421706318855286,0.7201901078224182,0.49881666898727417,1.326745867729187,0.5183250904083252
304897.12019363604,0.1587115377187729,0.41595643758773804,0.3558211624622345,1.0096937417984009,0.3678428828716278,1.4920578002929688,0.7700923085212708,1.9293862581253052
304897.12419363606,0.1612071990966797,0.6222862005233765,0.18103820085525513,1.6612887382507324,-0.12553611397743225,2.4649832248687744,-0.03710488975048065,3.253089189529419
304897.1281936361,0.18200860917568207,0.7113488912582397,0.1976625770330429,1.899067759513855,-0.20340289175510406,2.8481602668762207,-0.19819627702236176,3.800931215286255
304897.1321936361,0.05120452865958214,0.5179139971733093,-0.1424286663532257,1.183186650276184,-0.05171322450041771,0.9223349690437317,0.9817124009132385,0.5693674087524414
304897.13619363605,0.04512467607855797,0.7855404019355774,-0.12165199220180511,1.3074424266815186,0.6757338643074036,0.5998757481575012,2.065275192260742,0.5517346858978271
304897.14019363606,0.0299056526273489,0.9846462607383728,-0.05835527926683426,1.206702470779419,1.4935699701309204,0.11805151402950287,2.944178819656372,0.7635399699211121
304897.1441936361,0.03217407688498497,1.1242119073867798,-0.07544039189815521,1.3787164688110352,1.7262256145477295,0.05658762902021408,3.5325753688812256,0.7166774868965149
304897.1481936361,-0.014608057215809822,0.55788654088974,0.23504406213760376,0.07530295848846436,1.4268786907196045,0.32539406418800354,0.3093438446521759,2.315397024154663
304897.15219363605,-0.037319429218769073,0.7292225956916809,0.6066766381263733,-0.08239493519067764,1.5200622081756592,1.324853539466858,0.1670311540365219,1.9789851903915405
304897.15619363607,-0.05953649803996086,0.8181731700897217,0.9853219985961914,-0.22872453927993774,1.3279441595077515,2.34189510345459,0.1271660178899765,1.0095319747924805
304897.1601936361,-0.06802157312631607,0.9318901300430298,1.1305210590362549,-0.3112376630306244,1.5268566608428955,2.7470040321350098,0.03803630545735359,1.161543369293213
304897.1641936361,-0.04908280819654465,0.3108639419078827,0.9618816375732422,0.3895855247974396,-0.15575683116912842,1.04453706741333,2.999687671661377,1.7547447681427002
304897.16819363605,-0.0793219655752182,0.3995392620563507,1.4278466701507568,0.8518516421318054,-0.40903130173683167,0.9757812023162842,5.200498580932617,4.207530975341797
304897.17219363607,-0.09070836752653122,0.4625735282897949,1.6514921188354492,0.9666037559509277,-0.49768975377082825,1.1532613039016724,6.137994289398193,4.682616233825684
304897.1761936361,-0.04870125278830528,0.07271704077720642,0.6909946799278259,1.117174506187439,0.47612932324409485,-0.3109695017337799,0.2371397763490677,1.9248390197753906
304897.18019363604,-0.053686704486608505,0.022624213248491287,0.7392086982727051,1.485582947731018,1.2387477159500122,0.384709894657135,0.08246472477912903,1.2987127304077148
304897.18419363606,-0.04806777834892273,-0.04943922907114029,0.6609171628952026,1.6748830080032349,2.0101702213287354,1.246660590171814,0.0970788523554802,0.32547062635421753
304897.1881936361,-0.05470486357808113,-0.060246504843235016,0.7471193671226501,1.9145724773406982,2.2983365058898926,1.418203592300415,0.00643745856359601,0.2393106073141098
304897.1921936361,-0.006424129940569401,-0.06768742948770523,-0.0012517819413915277,0.5462912917137146,1.0899182558059692,1.5387179851531982,1.6952990293502808,1.076960802078247
304897.19619363605,0.016388913616538048,-0.08721048384904861,-0.11443118751049042,0.33479344844818115,0.9509999752044678,1.6682109832763672,2.203263759613037,2.2613511085510254
304897.20019363606,0.04483609274029732,-0.09614376723766327,-0.23161408305168152,-0.01218078751116991,0.5607202053070068,1.432823896408081,2.299018383026123,3.1700727939605713
304897.2041936361,0.05171918869018555,-0.10731637477874756,-0.26234814524650574,-0.01847740262746811,0.6313756108283997,1.6741069555282593,2.665461540222168,3.8346710205078125
304897.2081936361,0.06470468640327454,0.052415166050195694,-0.02813391573727131,-0.17424730956554413,-0.29377806186676025,-0.09161043167114258,-0.28818461298942566,-0.004695931915193796
304897.21219363605,0.12344654649496078,0.18359804153442383,0.1835772842168808,0.14308080077171326,0.1490526795387268,0.33383601903915405,0.14639151096343994,0.32713398337364197
304897.21619363606,0.1783265471458435,0.32775041460990906,0.4521322250366211,0.566231369972229,0.7483072876930237,0.9092050790786743,0.9304981827735901,1.0212641954421997
304897.2201936361,0.203481525182724,0.3733653724193573,0.5157082676887512,0.6423856616020203,0.8465524315834045,1.0072506666183472,0.9875172972679138,1.0402921438217163
304897.2241936361,0.15102092921733856,0.37818771600723267,0.6759030222892761,0.9216686487197876,1.3052998781204224,1.722072958946228,1.7517499923706055,1.886406421661377
304897.22819363605,0.2417486608028412,0.6327040791511536,1.0871617794036865,1.4695212841033936,1.8534704446792603,1.8595372438430786,1.8063199520111084,1.5112478733062744
304897.23219363607,0.3165294826030731,0.8518204092979431,1.4025403261184692,1.8897730112075806,2.13779616355896,1.6616133451461792,1.445865273475647,0.5397722125053406
304897.2361936361,0.3600885272026062,0.9692087769508362,1.6155540943145752,2.1649062633514404,2.483933687210083,1.8923330307006836,1.6668299436569214,0.6363568305969238
304897.2401936361,0.22726035118103027,0.5876287817955017,0.7976751923561096,0.6953569650650024,0.22165797650814056,-0.20489895343780518,-0.2992575764656067,0.6294710636138916
304897.24419363606,0.34757325053215027,0.8195443153381348,0.9008671045303345,0.557401180267334,0.07981693744659424,0.1277747005224228,0.8196794986724854,2.166219711303711
304897.2481936361,0.44048982858657837,0.9727829694747925,0.8560110330581665,0.28523188829421997,-0.043820615857839584,0.6262688040733337,2.2479987144470215,3.7321975231170654
304897.2521936361,0.5015118718147278,1.1104477643966675,0.965828001499176,0.3056032657623291,-0.09111177176237106,0.7028911709785461,2.580042600631714,4.365541934967041
304897.2561936361,0.28083494305610657,0.4851986765861511,0.10984188318252563,-0.06613470613956451,0.467207133769989,1.4622647762298584,1.4881318807601929,0.47895392775535583
304897.26019363606,0.402737557888031,0.5660736560821533,-0.019398586824536324,0.11846854537725449,1.2360328435897827,1.9739328622817993,0.9246781468391418,0.4657699167728424
304897.2641936361,0.4886423349380493,0.5639280080795288,-0.16458985209465027,0.3745798170566559,1.960608720779419,2.1587464809417725,-0.04131714254617691,0.6050843596458435
304897.2681936361,0.5572276711463928,0.6367976069450378,-0.207184836268425,0.41008949279785156,2.286741256713867,2.5267226696014404,-0.07899732887744904,0.5767897963523865
304897.2721936361,0.2919730246067047,0.1502106487751007,-0.05775284767150879,0.8441969752311707,1.1889872550964355,-0.02996278926730156,0.39713531732559204,2.055651903152466
304897.27619363606,0.40448859333992004,0.10506089776754379,0.07078111171722412,1.430586814880371,1.0568047761917114,0.06775328516960144,1.709654450416565,2.2732620239257812
304897.2801936361,0.4763728082180023,0.024845842272043228,0.24854782223701477,1.9095523357391357,0.6868983507156372,0.339037150144577,3.1065261363983154,1.880125641822815
304897.2841936361,0.5428481698036194,0.02708093263208866,0.27452775835990906,2.1867897510528564,0.7566893100738525,0.35292086005210876,3.5839691162109375,2.153334856033325
304897.2881936361,0.26582273840904236,-0.08066914230585098,0.5345059633255005,0.8039183616638184,-0.2754869759082794,1.50428307056427,0.9348357319831848,0.1397860199213028
304897.29219363607,0.3486425280570984,-0.1161932721734047,0.9755101799964905,0.7085872888565063,0.1337682604789734,2.253681182861328,0.46567481756210327,2.0397589206695557
304897.2961936361,0.39222684502601624,-0.1319207102060318,1.3742519617080688,0.4457753300666809,0.6977325677871704,2.6574153900146484,-0.1320580244064331,4.0012969970703125
304897.3001936361,0.44447270035743713,-0.15697257220745087,1.5688598155975342,0.4812270700931549,0.8034265637397766,3.1088669300079346,-0.19775605201721191,4.763455390930176
304897.3041936361,0.1973275989294052,-0.005291093606501818,0.8049508333206177,-0.21473780274391174,1.389829158782959,0.13028186559677124,2.3593316078186035,1.2604421377182007
304897.30819363607,0.2474294751882553,0.0923735722899437,1.0058954954147339,-0.11317744851112366,1.7974042892456055,0.0327632911503315,3.8874993324279785,0.6840148568153381
304897.3121936361,0.26764345169067383,0.20497854053974152,1.0605552196502686,0.09873789548873901,1.9307554960250854,0.03875666856765747,4.633090496063232,0.04661058634519577
304897.3161936361,0.30333247780799866,0.23471646010875702,1.2089239358901978,0.08917258679866791,2.207087278366089,-0.016569167375564575,5.710025787353516,-0.2041899859905243
304897.3201936361,0.11310259252786636,0.28761130571365356,0.24978651106357574,0.7111464142799377,0.2976725399494171,1.2081098556518555,0.21153707802295685,2.08301043510437
304897.3241936361,0.12937285006046295,0.52084881067276,0.12428995221853256,1.2844901084899902,0.012964694760739803,1.9455617666244507,0.16871733963489532,2.5139646530151367
304897.3281936361,0.1264866292476654,0.7341528534889221,-0.062178950756788254,1.7689383029937744,-0.3146117031574249,2.484464168548584,0.242782860994339,2.3197953701019287
304897.3321936361,0.1427924931049347,0.8350322246551514,-0.07841067016124725,2.0400469303131104,-0.4276319444179535,2.887040853500366,0.16555255651474,2.702322006225586
304897.3361936361,0.028812473639845848,0.622728705406189,-0.06772463768720627,0.9014576077461243,0.7412121295928955,0.20762379467487335,2.040526866912842,-0.027891555801033974
304897.3401936361,0.030839059501886368,0.9360761046409607,-0.051263004541397095,1.1393438577651978,1.5699678659439087,-0.006709963548928499,3.004789352416992,0.47585099935531616
304897.3441936361,0.03610778599977493,1.0779869556427002,-0.07316302508115768,1.3297752141952515,1.7917852401733398,-0.034813374280929565,3.5422115325927734,0.4038930833339691
304897.3481936361,-0.01993052288889885,0.55992192029953,0.22835509479045868,-0.00683071231469512,1.3998249769210815,0.2125658541917801,0.19322612881660461,2.1685705184936523
304897.35219363606,-0.0441545806825161,0.7202878594398499,0.584676206111908,-0.11172507703304291,1.5589189529418945,1.1931941509246826,0.2065477818250656,2.094392776489258
304897.3561936361,-0.06753256916999817,0.7946865558624268,0.9427764415740967,-0.18866652250289917,1.3762216567993164,2.1827149391174316,0.34769129753112793,1.4033457040786743
304897.3601936361,-0.07694080471992493,0.9023271203041077,1.0824863910675049,-0.2541487514972687,1.584490180015564,2.5673704147338867,0.3506568968296051,1.5850117206573486
304897.3641936361,-0.04742216318845749,0.3238452076911926,0.8315045833587646,0.17358197271823883,-0.04815196245908737,1.409782886505127,1.793763279914856,0.2214777171611786
304897.36819363607,-0.06789983063936234,0.3339933454990387,1.1403411626815796,0.7218194603919983,-0.044010452926158905,0.9107513427734375,2.2464356422424316,1.5825316905975342
304897.3721936361,-0.07939590513706207,0.2852110266685486,1.3206560611724854,1.2914789915084839,0.049240630120038986,0.0717722699046135,2.2708775997161865,2.943389892578125
304897.3761936361,-0.09224660694599152,0.3198024034500122,1.5126583576202393,1.5001921653747559,-0.012331371195614338,0.06474381685256958,2.656651496887207,3.527477264404297
304897.3801936361,-0.034082695841789246,0.007404051721096039,0.5590556263923645,1.2127896547317505,1.0324910879135132,0.2358800321817398,-0.1159864142537117,0.7437826991081238
304897.38419363607,-0.04069218412041664,-0.04105931147933006,0.5080026984214783,1.395485281944275,1.7445322275161743,1.2405352592468262,0.4022473990917206,0.5851136445999146
304897.3881936361,-0.04076404124498367,-0.09257346391677856,0.339514821767807,1.3658324480056763,2.2607693672180176,2.3962857723236084,1.130974292755127,0.5085279941558838
304897.3921936361,-0.047223832458257675,-0.10995486378669739,0.3800884187221527,1.54538094997406,2.6489179134368896,2.7242074012756348,1.2203326225280762,0.4922178387641907
304897.3961936361,0.008534224703907967,-0.08083408325910568,-0.09570808708667755,0.1401856392621994,0.7539334893226624,1.6413743495941162,2.15826416015625,2.040276288986206
304897.4001936361,0.03876613825559616,-0.0796898901462555,-0.17430737614631653,-0.10254689306020737,0.4663942754268646,1.2375178337097168,1.9202476739883423,2.214860200881958
304897.4041936361,0.07252606004476547,-0.054063063114881516,-0.24060261249542236,-0.3764388859272003,0.03266552463173866,0.4719933569431305,1.199765682220459,1.8626551628112793
304897.4081936361,0.08286293596029282,-0.062290191650390625,-0.2795017957687378,-0.45292460918426514,-0.007645961828529835,0.4967137277126312,1.340793490409851,2.2030253410339355
304897.4121936361,0.08626456558704376,0.13029156625270844,0.12361001968383789,0.04900170490145683,0.04776613414287567,0.08597622066736221,-0.10751766711473465,-0.22526828944683075
304897.4161936361,0.15379688143730164,0.29897356033325195,0.4328422248363495,0.5503139495849609,0.715576171875,0.8936281204223633,0.8655726909637451,1.5624301433563232
304897.4201936361,0.21473254263401031,0.46823617815971375,0.7617254853248596,1.1330876350402832,1.4926681518554688,1.849034070968628,2.0480966567993164,3.478323459625244
304897.4241936361,0.24466091394424438,0.5350197553634644,0.8732340335845947,1.2953153848648071,1.71793532371521,2.1075191497802734,2.3608925342559814,4.254366397857666
304897.4281936361,0.16930192708969116,0.4395250678062439,0.8112139105796814,1.139875054359436,1.4607805013656616,1.6988210678100586,1.7471003532409668,1.5565769672393799
304897.4321936361,0.2674056887626648,0.7077680230140686,1.191746711730957,1.5011249780654907,1.5702650547027588,1.3172333240509033,1.2484188079833984,0.6568705439567566
304897.4361936361,0.34712085127830505,0.926119327545166,1.4603394269943237,1.6429920196533203,1.376691460609436,0.5540944933891296,0.4392801821231842,-0.5014219284057617
304897.4401936361,0.3951776325702667,1.0583711862564087,1.6800047159194946,1.875307559967041,1.5746484994888306,0.6226938366889954,0.4145634174346924,-0.7511530518531799
304897.4441936361,0.2485404908657074,0.5749310255050659,0.6593780517578125,0.32183074951171875,-0.22462524473667145,-0.1291724443435669,1.061898946762085,1.4216302633285522
304897.4481936361,0.36437663435935974,0.7874646186828613,0.6734932065010071,0.1585589051246643,-0.17204450070858002,0.5973715782165527,2.9711945056915283,2.2119107246398926
304897.4521936361,0.4492405354976654,0.908435046672821,0.5659058690071106,-0.04819004610180855,-0.021688325330615044,1.5581568479537964,4.531151294708252,2.6338090896606445
304897.4561936361,0.5098921060562134,1.0388481616973877,0.6358543634414673,-0.08766971528530121,-0.04691388085484505,1.7694097757339478,5.5867838859558105,3.1635358333587646
304897.4601936361,0.31383848190307617,0.4040182828903198,-0.0028609996661543846,0.10677316784858704,1.141878604888916,1.6319500207901,0.5704999566078186,0.12213680148124695
304897.4641936361,0.47961580753326416,0.5402430891990662,-0.06324433535337448,0.3503040671348572,1.950762391090393,2.10093092918396,0.38362735509872437,0.3822656571865082
304897.4681936361,0.5504887104034424,0.6234093308448792,-0.07418043911457062,0.37836751341819763,2.25553035736084,2.474587917327881,0.3999778628349304,0.2824903726577759
304897.4721936361,0.28824782371520996,0.15142764151096344,-0.1475255787372589,0.8726968169212341,1.1815427541732788,-0.2191731035709381,0.2756873667240143,1.8734707832336426
304897.4761936361,0.3996325135231018,0.11829476803541183,0.03758668899536133,1.4718286991119385,1.0163369178771973,-0.10527413338422775,1.5998353958129883,2.0146749019622803
304897.4801936361,0.4693719744682312,0.055823054164648056,0.2820456922054291,1.9614413976669312,0.5842725038528442,0.1718640923500061,2.921795129776001,1.5975483655929565
304897.4841936361,0.5328685641288757,0.058744676411151886,0.32892975211143494,2.2542688846588135,0.638930082321167,0.17240194976329803,3.475491523742676,1.8871474266052246
304897.4881936361,0.25998106598854065,-0.09209539741277695,0.5269481539726257,0.8554263114929199,-0.32133957743644714,1.439684510231018,0.9478069543838501,-0.03318458050489426
304897.4921936361,0.34590062499046326,-0.14289319515228271,0.9323574900627136,0.727234959602356,0.07991781085729599,2.0348474979400635,0.5447855591773987,1.352773666381836
304897.4961936361,0.39491206407546997,-0.17752166092395782,1.2908376455307007,0.4324502646923065,0.6627888679504395,2.2773454189300537,-0.008215030655264854,2.887298345565796
304897.5001936361,0.448689728975296,-0.20045502483844757,1.4714460372924805,0.4703925549983978,0.7440191507339478,2.623300075531006,-0.05307459086179733,3.4098308086395264
304897.5041936361,0.19489607214927673,-0.019925199449062347,0.8846533894538879,-0.20097653567790985,1.3694299459457397,-0.003913761582225561,1.0334547758102417,1.1052664518356323
304897.5081936361,0.24702800810337067,0.08194804191589355,1.0434566736221313,-0.04234366863965988,1.8501194715499878,-0.13143092393875122,1.9137531518936157,0.5944052934646606
304897.5121936361,0.2690567672252655,0.2050546258687973,1.0517762899398804,0.18402951955795288,2.029237747192383,-0.13361738622188568,2.62140154838562,0.004904643632471561
304897.5161936361,0.30533984303474426,0.23557473719120026,1.190031886100769,0.21235626935958862,2.3395049571990967,-0.24586588144302368,3.040247678756714,-0.07357084006071091
304897.5201936361,0.1133967787027359,0.2907162606716156,0.24421821534633636,0.7293235659599304,0.2444319725036621,1.2469960451126099,0.10972517728805542,1.9071850776672363
304897.5241936361,0.12815386056900024,0.5164286494255066,0.1359594613313675,1.341965913772583,-0.027129163965582848,1.9458712339401245,0.1552131474018097,2.4692299365997314
304897.5281936361,0.12328716367483139,0.717519998550415,-0.029624536633491516,1.8665910959243774,-0.3228566348552704,2.414914131164551,0.3545016050338745,2.4503042697906494
304897.5321936361,0.13896214962005615,0.8176104426383972,-0.04074805602431297,2.138439655303955,-0.41463327407836914,2.795809030532837,0.3149052560329437,2.9501612186431885
304897.53619363613,0.02957293577492237,0.5595279932022095,-0.1501520276069641,0.9478539228439331,0.5271979570388794,0.36723247170448303,1.8471136093139648,-0.6451258063316345
