lsl_time,C3,C4,CZ,CP3,CP4,CPZ,FC3,FC4
315977.71091448265,-666.328125,-1236.0125732421875,-1098.8282470703125,-1159.543212890625,-1078.3721923828125,-672.8014526367188,-1309.0816650390625,-1508.94482421875
315977.7149144826,-657.4022827148438,-1225.8636474609375,-1089.080078125,-1149.563720703125,-1069.2344970703125,-664.4546508789062,-1298.934326171875,-1498.866943359375
315977.7189144826,-655.001708984375,-1224.4368896484375,-1087.486328125,-1147.98046875,-1066.764404296875,-661.123291015625,-1297.6258544921875,-1497.0863037109375
315977.72291448264,-663.54638671875,-1234.5157470703125,-1097.088623046875,-1157.8980712890625,-1075.4014892578125,-668.708251953125,-1307.7376708984375,-1506.8504638671875
315977.72691448266,-669.377197265625,-1240.121337890625,-1102.6427001953125,-1163.560546875,-1081.3067626953125,-674.916259765625,-1313.23583984375,-1512.6239013671875
315977.7309144826,-665.863525390625,-1235.3656005859375,-1098.185302734375,-1158.871826171875,-1077.7646484375,-672.3383178710938,-1308.36474609375,-1508.1654052734375
315977.73491448263,-657.866943359375,-1226.3758544921875,-1089.545166015625,-1149.974365234375,-1069.692626953125,-664.8268432617188,-1299.4029541015625,-1499.39892578125
315977.73891448264,-655.7361450195312,-1225.2822265625,-1088.30517578125,-1148.6988525390625,-1067.517333984375,-661.71533203125,-1298.4656982421875,-1498.0015869140625
315977.74291448266,-664.0574951171875,-1235.144775390625,-1097.6982421875,-1158.408203125,-1075.945556640625,-669.1039428710938,-1308.3721923828125,-1507.5859375
315977.7469144826,-669.9757080078125,-1240.8931884765625,-1103.356689453125,-1164.152587890625,-1082.0137939453125,-675.495849609375,-1313.97119140625,-1513.505126953125
315977.75091448263,-666.6343994140625,-1236.2384033203125,-1099.0621337890625,-1159.5887451171875,-1078.6513671875,-673.082275390625,-1309.2310791015625,-1509.13671875
315977.75491448265,-657.652099609375,-1226.155517578125,-1089.3458251953125,-1149.649169921875,-1069.541259765625,-664.6455078125,-1299.1571044921875,-1499.211669921875
315977.75891448266,-655.8660278320312,-1225.512939453125,-1088.5150146484375,-1148.8773193359375,-1067.7916259765625,-661.9002075195312,-1298.7073974609375,-1498.3448486328125
315977.7629144827,-664.4157104492188,-1235.8167724609375,-1098.294189453125,-1159.023681640625,-1076.5721435546875,-669.5090942382812,-1309.03515625,-1508.4017333984375
315977.76691448264,-669.75439453125,-1240.8262939453125,-1103.283203125,-1164.1580810546875,-1081.935791015625,-675.304443359375,-1313.9298095703125,-1513.502685546875
315977.77091448265,-666.2772216796875,-1235.8831787109375,-1098.6968994140625,-1159.3739013671875,-1078.271728515625,-672.6885375976562,-1308.893798828125,-1508.8079833984375
315977.77491448267,-658.2890625,-1226.8824462890625,-1090.015869140625,-1150.5205078125,-1070.1827392578125,-665.175048828125,-1299.94140625,-1500.02490234375
315977.7789144827,-656.11083984375,-1226.0101318359375,-1088.9501953125,-1149.4588623046875,-1068.1802978515625,-662.1105346679688,-1299.280517578125,-1498.98974609375
315977.78291448264,-663.5593872070312,-1235.13525390625,-1097.562744140625,-1158.291748046875,-1075.8466796875,-668.6887817382812,-1308.4351806640625,-1507.8037109375
315977.78691448265,-668.7766723632812,-1239.7066650390625,-1102.1776123046875,-1162.9764404296875,-1080.8516845703125,-674.2593383789062,-1312.9085693359375,-1512.3785400390625
315977.79091448267,-664.9492797851562,-1234.175048828125,-1097.0732421875,-1157.677734375,-1076.6729736328125,-671.2976684570312,-1307.2281494140625,-1506.9468994140625
315977.7949144827,-656.7438354492188,-1224.9364013671875,-1088.183349609375,-1148.5660400390625,-1068.3681640625,-663.6173095703125,-1297.9591064453125,-1497.8426513671875
315977.79891448264,-655.0686645507812,-1224.44580078125,-1087.517822265625,-1147.9075927734375,-1066.77294921875,-661.0608520507812,-1297.5643310546875,-1497.056396484375
315977.80291448266,-663.6173095703125,-1234.4803466796875,-1097.0787353515625,-1157.7896728515625,-1075.3695068359375,-668.687255859375,-1307.6123046875,-1506.7730712890625
315977.8069144827,-668.7332153320312,-1239.241455078125,-1101.818359375,-1162.6273193359375,-1080.4869384765625,-674.2388305664062,-1312.2950439453125,-1511.64013671875
315977.8109144827,-665.3909301757812,-1234.736083984375,-1097.5997314453125,-1158.21728515625,-1077.193115234375,-671.7922973632812,-1307.65478515625,-1507.425048828125
315977.81491448265,-657.0810546875,-1225.4095458984375,-1088.637451171875,-1148.9866943359375,-1068.7813720703125,-663.9955444335938,-1298.2623291015625,-1498.25634765625
315977.81891448266,-654.8972778320312,-1224.349365234375,-1087.3948974609375,-1147.7142333984375,-1066.6015625,-660.906982421875,-1297.3560791015625,-1496.929931640625
315977.8229144827,-663.09521484375,-1234.0731201171875,-1096.634033203125,-1157.2974853515625,-1074.888427734375,-668.1861572265625,-1307.1202392578125,-1506.369873046875
315977.8269144827,-668.1527099609375,-1238.8128662109375,-1101.332763671875,-1162.108154296875,-1079.96142578125,-673.6398315429688,-1311.7569580078125,-1511.2540283203125
315977.83091448265,-665.108642578125,-1234.453857421875,-1097.320556640625,-1157.9224853515625,-1076.8668212890625,-671.468017578125,-1307.3050537109375,-1507.2001953125
315977.83491448266,-656.5234985351562,-1224.7281494140625,-1087.949462890625,-1148.34619140625,-1068.120361328125,-663.4888916015625,-1297.48291015625,-1497.5394287109375
315977.8389144827,-654.2987670898438,-1223.38720703125,-1086.480224609375,-1146.88232421875,-1065.7132568359375,-660.2999877929688,-1296.2938232421875,-1495.8043212890625
315977.8429144827,-662.70751953125,-1233.270263671875,-1095.89013671875,-1156.5860595703125,-1074.156494140625,-667.7335205078125,-1306.264892578125,-1505.3602294921875
315977.84691448265,-668.2666015625,-1238.71142578125,-1101.2379150390625,-1161.9383544921875,-1079.9383544921875,-673.8321533203125,-1311.546630859375,-1510.94873046875
315977.85091448267,-665.3264770507812,-1234.5443115234375,-1097.406982421875,-1157.906494140625,-1077.03125,-671.8182373046875,-1307.3021240234375,-1507.1058349609375
315977.8549144827,-656.9441528320312,-1225.1387939453125,-1088.3636474609375,-1148.6484375,-1068.5450439453125,-663.946533203125,-1297.8651123046875,-1497.880126953125
315977.8589144827,-654.7838745117188,-1224.29248046875,-1087.300048828125,-1147.6077880859375,-1066.5216064453125,-660.8955078125,-1297.1881103515625,-1496.8125
315977.86291448266,-662.8599243164062,-1233.9302978515625,-1096.451171875,-1157.0732421875,-1074.7020263671875,-668.0537719726562,-1306.976806640625,-1506.2265625
315977.86691448267,-668.5383911132812,-1239.1375732421875,-1101.6614990234375,-1162.39892578125,-1080.275634765625,-674.0879516601562,-1312.1341552734375,-1511.5701904296875
315977.8709144827,-665.6666870117188,-1234.715576171875,-1097.6517333984375,-1158.2447509765625,-1077.20654296875,-672.1119995117188,-1307.611328125,-1507.3660888671875
315977.8749144827,-657.114013671875,-1225.036865234375,-1088.3717041015625,-1148.7403564453125,-1068.510009765625,-664.10595703125,-1297.879150390625,-1497.793212890625
315977.87891448266,-654.5835571289062,-1223.7469482421875,-1086.84033203125,-1147.1986083984375,-1066.0675048828125,-660.6557006835938,-1296.7239990234375,-1496.2239990234375
315977.8829144827,-662.7744750976562,-1233.397216796875,-1096.0115966796875,-1156.6685791015625,-1074.3238525390625,-667.9168701171875,-1306.4407958984375,-1505.5450439453125
315977.8869144827,-668.4010009765625,-1238.5955810546875,-1101.21435546875,-1161.96875,-1079.9273681640625,-673.9270629882812,-1311.6126708984375,-1510.86328125
315977.89091448265,-665.25,-1234.088623046875,-1097.0831298828125,-1157.686279296875,-1076.7244873046875,-671.6643676757812,-1307.0882568359375,-1506.6446533203125
315977.89491448266,-656.8592529296875,-1224.758544921875,-1088.1058349609375,-1148.4925537109375,-1068.271728515625,-663.7876586914062,-1297.7376708984375,-1497.489990234375
315977.8989144827,-655.411376953125,-1224.6851806640625,-1087.8040771484375,-1148.160400390625,-1066.9747314453125,-661.3995971679688,-1297.8326416015625,-1497.22216796875
315977.9029144827,-663.8301391601562,-1234.7940673828125,-1097.408447265625,-1158.055419921875,-1075.6138916015625,-668.9485473632812,-1307.9610595703125,-1507.080322265625
315977.90691448265,-668.8391723632812,-1239.2650146484375,-1101.9283447265625,-1162.6767578125,-1080.5418701171875,-674.419189453125,-1312.3250732421875,-1511.61474609375
315977.91091448267,-665.0037231445312,-1233.97021484375,-1097.0281982421875,-1157.59375,-1076.548583984375,-671.4595336914062,-1306.9827880859375,-1506.604736328125
315977.9149144826,-656.4725341796875,-1224.4288330078125,-1087.83154296875,-1148.185302734375,-1067.9005126953125,-663.4129638671875,-1297.430419921875,-1497.2042236328125
315977.91891448264,-655.2195434570312,-1224.651123046875,-1087.7706298828125,-1148.197265625,-1066.8992919921875,-661.294189453125,-1297.8021240234375,-1497.2481689453125
315977.92291448265,-664.38671875,-1235.660400390625,-1098.1962890625,-1158.9661865234375,-1076.4091796875,-669.58056640625,-1308.8253173828125,-1508.1044921875
315977.92691448267,-669.4426879882812,-1240.34912109375,-1102.8465576171875,-1163.712890625,-1081.460693359375,-675.0731811523438,-1313.4237060546875,-1512.951171875
315977.9309144826,-665.4888305664062,-1234.83154296875,-1097.7496337890625,-1158.462158203125,-1077.2559814453125,-671.9711303710938,-1307.8851318359375,-1507.6763916015625
315977.93491448264,-656.8817138671875,-1225.167724609375,-1088.4371337890625,-1148.8043212890625,-1068.4990234375,-663.8735961914062,-1298.203857421875,-1498.1064453125
315977.93891448266,-655.1720581054688,-1224.6885986328125,-1087.7257080078125,-1148.044921875,-1066.8648681640625,-661.2647094726562,-1297.82421875,-1497.295166015625
315977.9429144827,-663.7576904296875,-1234.8485107421875,-1097.3974609375,-1158.046875,-1075.6033935546875,-668.9545288085938,-1308.0035400390625,-1507.1832275390625
315977.9469144826,-668.8486328125,-1239.7406005859375,-1102.22802734375,-1162.9510498046875,-1080.8486328125,-674.5225830078125,-1312.7626953125,-1512.28759765625
315977.95091448264,-665.5167846679688,-1235.1173095703125,-1097.967529296875,-1158.4781494140625,-1077.4698486328125,-672.0690307617188,-1308.1319580078125,-1508.0445556640625
315977.95491448266,-657.3588256835938,-1226.0565185546875,-1089.25341796875,-1149.5462646484375,-1069.25439453125,-664.34326171875,-1299.129150390625,-1499.2191162109375
315977.9589144827,-655.7960815429688,-1225.8232421875,-1088.8052978515625,-1149.177490234375,-1067.8590087890625,-661.86669921875,-1299.023193359375,-1498.716064453125
315977.9629144827,-664.3422241210938,-1235.9176025390625,-1098.424560546875,-1159.11962890625,-1076.5421142578125,-669.5081176757812,-1309.215087890625,-1508.547119140625
315977.96691448265,-669.66650390625,-1240.6583251953125,-1103.2108154296875,-1164.0146484375,-1081.7584228515625,-675.27197265625,-1313.86279296875,-1513.3558349609375
315977.97091448266,-666.02587890625,-1235.401123046875,-1098.3876953125,-1158.9967041015625,-1077.9085693359375,-672.5521850585938,-1308.486572265625,-1508.2623291015625
315977.9749144827,-657.4732055664062,-1225.6158447265625,-1089.0321044921875,-1149.4527587890625,-1069.0946044921875,-664.4346923828125,-1298.69091796875,-1498.5626220703125
315977.9789144827,-655.6552124023438,-1225.057861328125,-1088.26220703125,-1148.66796875,-1067.389892578125,-661.7138671875,-1298.27978515625,-1497.725341796875
315977.98291448265,-664.1099243164062,-1235.2177734375,-1097.9205322265625,-1158.6104736328125,-1076.117919921875,-669.311279296875,-1308.5225830078125,-1507.682861328125
315977.98691448267,-669.4476318359375,-1240.1412353515625,-1102.8076171875,-1163.6124267578125,-1081.4437255859375,-675.1066284179688,-1313.334716796875,-1512.7158203125
315977.9909144827,-665.8275756835938,-1235.0108642578125,-1098.04638671875,-1158.6834716796875,-1077.6092529296875,-672.3572998046875,-1308.1229248046875,-1507.8621826171875
315977.9949144827,-657.2189331054688,-1225.231689453125,-1088.639892578125,-1149.0186767578125,-1068.725830078125,-664.1758422851562,-1298.36572265625,-1498.1724853515625
315977.99891448265,-655.260009765625,-1224.3818359375,-1087.5987548828125,-1147.990966796875,-1066.7254638671875,-661.2317504882812,-1297.65283203125,-1496.9659423828125
315978.00291448267,-663.65478515625,-1234.3223876953125,-1097.0482177734375,-1157.74267578125,-1075.26513671875,-668.7711791992188,-1307.6053466796875,-1506.6417236328125
315978.0069144827,-669.2008666992188,-1239.4044189453125,-1102.0771484375,-1162.9090576171875,-1080.74169921875,-674.7334594726562,-1312.5428466796875,-1511.83251953125
315978.0109144827,-665.583251953125,-1234.4937744140625,-1097.4808349609375,-1158.140869140625,-1077.07470703125,-672.0760498046875,-1307.472412109375,-1507.1851806640625
315978.01491448266,-657.0840454101562,-1225.123779296875,-1088.4366455078125,-1148.8912353515625,-1068.541015625,-664.0899658203125,-1298.097412109375,-1498.008544921875
315978.0189144827,-655.4053955078125,-1224.7386474609375,-1087.8056640625,-1148.2547607421875,-1066.936767578125,-661.4610595703125,-1297.8551025390625,-1497.30908203125
315978.0229144827,-664.1089477539062,-1234.9754638671875,-1097.5533447265625,-1158.2847900390625,-1075.7423095703125,-669.2163696289062,-1308.116943359375,-1507.2567138671875
315978.0269144827,-669.1159057617188,-1239.5677490234375,-1102.128173828125,-1162.947998046875,-1080.76025390625,-674.6549682617188,-1312.6072998046875,-1511.9969482421875
315978.03091448266,-665.8490600585938,-1234.9468994140625,-1097.85107421875,-1158.507568359375,-1077.4029541015625,-672.2794189453125,-1307.9345703125,-1507.681396484375
315978.0349144827,-657.49169921875,-1225.660888671875,-1088.94873046875,-1149.3953857421875,-1068.9876708984375,-664.4321899414062,-1298.6824951171875,-1498.5936279296875
315978.0389144827,-655.7540893554688,-1225.3856201171875,-1088.4326171875,-1148.8922119140625,-1067.4598388671875,-661.726318359375,-1298.6619873046875,-1498.16796875
315978.0429144827,-664.2003784179688,-1235.4510498046875,-1097.992919921875,-1158.7838134765625,-1076.1634521484375,-669.3842163085938,-1308.6724853515625,-1507.95556640625
315978.04691448266,-669.6919555664062,-1240.48095703125,-1103.04541015625,-1163.9237060546875,-1081.6705322265625,-675.3584594726562,-1313.5875244140625,-1513.1085205078125
315978.0509144827,-666.0598754882812,-1235.5723876953125,-1098.5115966796875,-1159.218017578125,-1078.079833984375,-672.6715698242188,-1308.6639404296875,-1508.53515625
315978.0549144827,-657.7449951171875,-1226.4761962890625,-1089.735595703125,-1150.201171875,-1069.83544921875,-664.8787841796875,-1299.5433349609375,-1499.6378173828125
315978.0589144827,-656.2117309570312,-1226.1075439453125,-1089.175048828125,-1149.651611328125,-1068.2802734375,-662.3623046875,-1299.2335205078125,-1498.890869140625
315978.0629144827,-664.7413940429688,-1236.0350341796875,-1098.637939453125,-1159.478271484375,-1076.846923828125,-669.9872436523438,-1309.172607421875,-1508.4547119140625
315978.0669144827,-669.9072875976562,-1240.749267578125,-1103.326171875,-1164.3409423828125,-1082.00830078125,-675.5887451171875,-1313.8133544921875,-1513.2783203125
315978.0709144827,-666.2107543945312,-1235.5374755859375,-1098.49755859375,-1159.3514404296875,-1078.1253662109375,-672.7369995117188,-1308.5330810546875,-1508.2918701171875
315978.0749144827,-657.5391845703125,-1225.8037109375,-1089.1240234375,-1149.6751708984375,-1069.2388916015625,-664.4811401367188,-1298.8792724609375,-1498.699462890625
315978.0789144827,-655.93896484375,-1225.39501953125,-1088.5054931640625,-1149.092041015625,-1067.625244140625,-661.8616943359375,-1298.6824951171875,-1498.0150146484375
315978.0829144827,-664.3687133789062,-1235.530517578125,-1098.087890625,-1159.0540771484375,-1076.3387451171875,-669.4866333007812,-1308.73388671875,-1507.923095703125
315978.0869144827,-669.4811401367188,-1240.141845703125,-1102.7166748046875,-1163.8558349609375,-1081.394287109375,-675.01220703125,-1313.23779296875,-1512.7332763671875
315978.0909144827,-666.0968627929688,-1235.32666015625,-1098.3001708984375,-1159.22998046875,-1077.87255859375,-672.4857177734375,-1308.396728515625,-1508.23486328125
315978.09491448273,-657.3033447265625,-1225.5384521484375,-1088.873291015625,-1149.498291015625,-1068.9296875,-664.1663818359375,-1298.6259765625,-1498.591064453125
315978.0989144827,-655.6961669921875,-1225.1497802734375,-1088.2576904296875,-1148.8458251953125,-1067.302978515625,-661.5589599609375,-1298.4486083984375,-1497.9156494140625
315978.1029144827,-664.3527221679688,-1235.2982177734375,-1097.91552734375,-1158.8687744140625,-1076.0704345703125,-669.3272705078125,-1308.742431640625,-1507.82275390625
315978.1069144827,-669.4276733398438,-1239.8095703125,-1102.450439453125,-1163.52001953125,-1081.072021484375,-674.8423461914062,-1313.162841796875,-1512.4530029296875
315978.11091448274,-665.409912109375,-1234.2340087890625,-1097.3070068359375,-1158.1907958984375,-1076.8209228515625,-671.7208251953125,-1307.471923828125,-1507.0977783203125
315978.1149144827,-656.5029907226562,-1224.2115478515625,-1087.6932373046875,-1148.3447265625,-1067.68115234375,-663.2821044921875,-1297.3685302734375,-1497.1597900390625
315978.1189144827,-655.1016235351562,-1223.9522705078125,-1087.24658203125,-1147.8646240234375,-1066.226806640625,-660.89697265625,-1297.193603515625,-1496.5152587890625
315978.1229144827,-663.58984375,-1234.013671875,-1096.8369140625,-1157.708740234375,-1074.910888671875,-668.535888671875,-1307.300048828125,-1506.3399658203125
315978.12691448274,-669.2343139648438,-1239.262939453125,-1102.0692138671875,-1163.013427734375,-1080.619873046875,-674.6400146484375,-1312.4884033203125,-1511.74560546875
315978.1309144827,-665.3494262695312,-1233.8653564453125,-1097.0811767578125,-1157.795166015625,-1076.537109375,-671.60693359375,-1307.0557861328125,-1506.5982666015625
315978.1349144827,-657.1539916992188,-1224.7835693359375,-1088.337646484375,-1148.796875,-1068.2537841796875,-663.8685913085938,-1298.021484375,-1497.7083740234375
315978.1389144827,-656.00439453125,-1225.122314453125,-1088.3541259765625,-1148.88720703125,-1067.2685546875,-661.736328125,-1298.5560302734375,-1497.826171875
315978.14291448274,-664.7788696289062,-1235.5699462890625,-1098.2672119140625,-1159.1500244140625,-1076.3253173828125,-669.7384033203125,-1308.99072265625,-1508.071044921875
315978.1469144827,-669.5620727539062,-1239.7431640625,-1102.50439453125,-1163.4605712890625,-1081.0235595703125,-674.9987182617188,-1313.0880126953125,-1512.34765625
315978.1509144827,-665.0302124023438,-1233.5355224609375,-1096.7529296875,-1157.5338134765625,-1076.19091796875,-671.3121948242188,-1306.7545166015625,-1506.29296875
315978.15491448273,-656.4000854492188,-1223.79931640625,-1087.387451171875,-1147.947509765625,-1067.3265380859375,-663.0977172851562,-1296.975830078125,-1496.5966796875
315978.15891448274,-655.4013671875,-1224.217529296875,-1087.517822265625,-1148.1453857421875,-1066.484130859375,-661.1472778320312,-1297.5478515625,-1496.716064453125
315978.16291448276,-663.989501953125,-1234.2879638671875,-1097.0897216796875,-1158.0494384765625,-1075.2081298828125,-668.9255981445312,-1307.5848388671875,-1506.48974609375
315978.1669144827,-668.65478515625,-1238.245849609375,-1101.1004638671875,-1162.24609375,-1079.6785888671875,-673.988037109375,-1311.4542236328125,-1510.550048828125
315978.17091448273,-665.2085571289062,-1233.5360107421875,-1096.699951171875,-1157.535888671875,-1076.2313232421875,-671.4615478515625,-1306.68359375,-1506.067626953125
315978.17491448275,-656.7183227539062,-1224.151611328125,-1087.6212158203125,-1148.185791015625,-1067.6751708984375,-663.4699096679688,-1297.26513671875,-1496.7860107421875
315978.17891448276,-655.0032348632812,-1223.7369384765625,-1086.9453125,-1147.601318359375,-1065.9835205078125,-660.7945556640625,-1296.8858642578125,-1496.03466796875
315978.1829144827,-663.4804077148438,-1234.047607421875,-1096.674072265625,-1157.63427734375,-1074.821044921875,-668.50244140625,-1307.1866455078125,-1506.1845703125
315978.18691448274,-668.80419921875,-1238.9871826171875,-1101.5740966796875,-1162.6796875,-1080.2156982421875,-674.3387451171875,-1311.9832763671875,-1511.2984619140625
315978.19091448275,-664.62451171875,-1233.3232421875,-1096.30126953125,-1157.2115478515625,-1075.880615234375,-671.0643920898438,-1306.2164306640625,-1505.8642578125
315978.19491448277,-656.0189208984375,-1223.612548828125,-1086.9947509765625,-1147.668212890625,-1067.064208984375,-662.9093627929688,-1296.5201416015625,-1496.2445068359375
315978.1989144827,-654.904296875,-1223.723876953125,-1086.9068603515625,-1147.5958251953125,-1065.95703125,-660.7905883789062,-1296.804443359375,-1496.0596923828125
315978.20291448274,-663.4729614257812,-1233.83984375,-1096.5416259765625,-1157.54736328125,-1074.70458984375,-668.514404296875,-1306.953369140625,-1505.9647216796875
315978.20691448275,-668.6748046875,-1238.5435791015625,-1101.289306640625,-1162.3984375,-1079.9249267578125,-674.2198486328125,-1311.5811767578125,-1510.8267822265625
315978.21091448277,-665.1051025390625,-1233.56201171875,-1096.719970703125,-1157.6627197265625,-1076.23388671875,-671.4930419921875,-1306.599609375,-1506.1610107421875
315978.2149144827,-656.5904541015625,-1224.1270751953125,-1087.624755859375,-1148.2987060546875,-1067.6082763671875,-663.4349365234375,-1297.1527099609375,-1496.87646484375
315978.21891448274,-655.3768920898438,-1224.16650390625,-1087.4488525390625,-1148.184814453125,-1066.397705078125,-661.1942749023438,-1297.4119873046875,-1496.63671875
315978.22291448276,-664.3822021484375,-1234.7496337890625,-1097.558349609375,-1158.572998046875,-1075.6048583984375,-669.3641967773438,-1308.117431640625,-1507.0443115234375
315978.2269144828,-669.224365234375,-1239.10009765625,-1101.937744140625,-1163.0394287109375,-1080.48193359375,-674.7364501953125,-1312.3260498046875,-1511.5023193359375
315978.23091448273,-664.8588256835938,-1233.3282470703125,-1096.5411376953125,-1157.4869384765625,-1075.9949951171875,-671.2377319335938,-1306.503662109375,-1506.004150390625
315978.23491448275,-656.6494140625,-1224.5068359375,-1087.9654541015625,-1148.779296875,-1067.8990478515625,-663.448974609375,-1297.710693359375,-1497.4979248046875
315978.23891448276,-655.7935791015625,-1225.15576171875,-1088.3037109375,-1149.1295166015625,-1067.237060546875,-661.5714721679688,-1298.5440673828125,-1497.897216796875
315978.2429144827,-664.5140991210938,-1235.3251953125,-1097.9599609375,-1159.0955810546875,-1076.08349609375,-669.4821166992188,-1308.6810302734375,-1507.705322265625
315978.24691448273,-669.5006103515625,-1239.865478515625,-1102.493408203125,-1163.7728271484375,-1081.1224365234375,-674.9712524414062,-1313.0928955078125,-1512.4075927734375
315978.25091448275,-665.5557861328125,-1234.6806640625,-1097.666748046875,-1158.7763671875,-1077.2125244140625,-671.9596557617188,-1307.8416748046875,-1507.5804443359375
315978.25491448276,-656.5919189453125,-1224.8170166015625,-1088.1033935546875,-1148.86572265625,-1068.1593017578125,-663.4879150390625,-1297.8985595703125,-1497.7562255859375
315978.2589144827,-655.5087890625,-1224.8055419921875,-1087.91650390625,-1148.7069091796875,-1066.9542236328125,-661.3630981445312,-1298.033935546875,-1497.2991943359375
315978.26291448274,-664.2198486328125,-1234.8929443359375,-1097.55029296875,-1158.6185302734375,-1075.7252197265625,-669.2578125,-1308.1494140625,-1507.0623779296875
315978.2669144827,-668.9535522460938,-1239.237060546875,-1101.8524169921875,-1163.02099609375,-1080.555908203125,-674.5625610351562,-1312.277099609375,-1511.5787353515625
315978.2709144827,-665.18505859375,-1234.2764892578125,-1097.18212890625,-1158.206787109375,-1076.8123779296875,-671.7103271484375,-1307.2041015625,-1506.9893798828125
315978.2749144827,-657.1729736328125,-1225.37353515625,-1088.597412109375,-1149.3778076171875,-1068.6964111328125,-664.1453857421875,-1298.2752685546875,-1498.2164306640625
315978.2789144827,-656.0493774414062,-1225.4644775390625,-1088.486572265625,-1149.296875,-1067.5252685546875,-661.9786376953125,-1298.4771728515625,-1497.951171875
315978.2829144827,-664.418701171875,-1235.123291015625,-1097.7056884765625,-1158.84228515625,-1075.91259765625,-669.474609375,-1308.248291015625,-1507.363037109375
315978.2869144827,-668.8556518554688,-1238.8038330078125,-1101.4896240234375,-1162.6767578125,-1080.2066650390625,-674.4711303710938,-1311.8863525390625,-1511.112548828125
315978.2909144827,-664.528076171875,-1232.8426513671875,-1096.0015869140625,-1157.0716552734375,-1075.5928955078125,-671.0004272460938,-1305.897705078125,-1505.3922119140625
315978.2949144827,-655.6192016601562,-1222.862060546875,-1086.4041748046875,-1147.195068359375,-1066.43017578125,-662.4537353515625,-1295.9755859375,-1495.5240478515625
315978.2989144827,-654.6315307617188,-1223.0040283203125,-1086.3707275390625,-1147.1680908203125,-1065.3265380859375,-660.3823852539062,-1296.263916015625,-1495.3162841796875
315978.3029144827,-663.5223999023438,-1233.1953125,-1096.136474609375,-1157.2655029296875,-1074.2379150390625,-668.43994140625,-1306.4962158203125,-1505.249267578125
315978.30691448273,-667.7940063476562,-1236.7969970703125,-1099.8050537109375,-1161.0115966796875,-1078.41064453125,-673.2186279296875,-1310.0244140625,-1508.976806640625
315978.31091448275,-663.6697998046875,-1231.3797607421875,-1094.7435302734375,-1155.73681640625,-1074.239501953125,-669.958251953125,-1304.562744140625,-1503.9044189453125
315978.3149144827,-655.281982421875,-1222.28955078125,-1085.920166015625,-1146.6715087890625,-1065.8646240234375,-662.0031127929688,-1295.5,-1495.0260009765625
315978.3189144827,-654.7474365234375,-1223.073486328125,-1086.4456787109375,-1147.2645263671875,-1065.3360595703125,-660.410400390625,-1296.4403076171875,-1495.4561767578125
315978.32291448273,-663.6672973632812,-1233.5125732421875,-1096.3778076171875,-1157.4564208984375,-1074.477783203125,-668.6083374023438,-1306.85546875,-1505.5775146484375
315978.32691448275,-668.2481079101562,-1237.4224853515625,-1100.3570556640625,-1161.4896240234375,-1079.0106201171875,-673.7772216796875,-1310.5999755859375,-1509.4853515625
315978.3309144827,-663.9825439453125,-1231.629638671875,-1095.00634765625,-1155.985107421875,-1074.5577392578125,-670.3609008789062,-1304.6796875,-1503.893310546875
315978.3349144827,-655.4053955078125,-1222.040771484375,-1085.7982177734375,-1146.5191650390625,-1065.7886962890625,-662.2059326171875,-1295.037353515625,-1494.3544921875
315978.33891448274,-654.3047485351562,-1222.3040771484375,-1085.770263671875,-1146.5067138671875,-1064.7730712890625,-660.1775512695312,-1295.2791748046875,-1494.1781005859375
315978.34291448275,-662.9243774414062,-1232.4659423828125,-1095.41796875,-1156.4027099609375,-1073.5675048828125,-667.9738159179688,-1305.426025390625,-1504.0467529296875
315978.3469144827,-668.17919921875,-1237.430908203125,-1100.32958984375,-1161.3782958984375,-1079.0076904296875,-673.7896728515625,-1310.2376708984375,-1509.203125
315978.3509144827,-664.0335083007812,-1232.017333984375,-1095.2431640625,-1156.117919921875,-1074.864013671875,-670.5667724609375,-1304.711181640625,-1504.0816650390625
315978.35491448274,-655.5217895507812,-1222.7337646484375,-1086.266845703125,-1146.9088134765625,-1066.313232421875,-662.4237670898438,-1295.52001953125,-1494.9940185546875
315978.35891448276,-654.96923828125,-1223.530029296875,-1086.8238525390625,-1147.5194091796875,-1065.815673828125,-660.8485107421875,-1296.499267578125,-1495.4990234375
315978.3629144827,-663.5838623046875,-1233.5965576171875,-1096.4136962890625,-1157.4559326171875,-1074.5477294921875,-668.6083374023438,-1306.5791015625,-1505.3631591796875
315978.3669144827,-668.4609375,-1237.95947265625,-1100.8197021484375,-1161.9193115234375,-1079.413818359375,-673.9545288085938,-1310.927734375,-1509.947998046875
315978.37091448274,-664.5955200195312,-1232.8720703125,-1096.0699462890625,-1156.9957275390625,-1075.6043701171875,-671.036376953125,-1305.7523193359375,-1505.1807861328125
315978.37491448276,-656.5799560546875,-1224.14453125,-1087.603759765625,-1148.3421630859375,-1067.59326171875,-663.3999633789062,-1297.063232421875,-1496.6417236328125
315978.3789144827,-656.1612548828125,-1225.2646484375,-1088.4190673828125,-1149.2734375,-1067.33203125,-661.9027099609375,-1298.4056396484375,-1497.5584716796875
315978.38291448273,-664.5086059570312,-1235.13330078125,-1097.777587890625,-1158.9986572265625,-1075.837646484375,-669.4391479492188,-1308.2802734375,-1507.22119140625
315978.38691448275,-669.2637939453125,-1239.2965087890625,-1101.9718017578125,-1163.2872314453125,-1080.532958984375,-674.655517578125,-1312.41796875,-1511.5911865234375
315978.3909144827,-664.4381713867188,-1232.752197265625,-1095.9051513671875,-1156.9617919921875,-1075.330078125,-670.6296997070312,-1305.9271240234375,-1505.2957763671875
315978.3949144827,-656.1463012695312,-1223.4061279296875,-1086.9512939453125,-1147.8045654296875,-1066.7813720703125,-662.6685791015625,-1296.5906982421875,-1496.0941162109375
315978.39891448274,-655.31396484375,-1224.026611328125,-1087.2835693359375,-1148.1373291015625,-1066.06103515625,-660.8350219726562,-1297.339599609375,-1496.4407958984375
315978.40291448275,-663.9140625,-1234.1031494140625,-1096.8663330078125,-1158.0205078125,-1074.7960205078125,-668.599853515625,-1307.4788818359375,-1506.305908203125
315978.4069144827,-668.9435424804688,-1238.6180419921875,-1101.398681640625,-1162.6312255859375,-1079.8084716796875,-674.10595703125,-1311.98681640625,-1511.067138671875
315978.4109144827,-664.689453125,-1233.0035400390625,-1096.1739501953125,-1157.2286376953125,-1075.469970703125,-670.6671752929688,-1306.4083251953125,-1505.81982421875
315978.4149144827,-655.9999389648438,-1223.315185546875,-1086.8743896484375,-1147.6806640625,-1066.6065673828125,-662.3892822265625,-1296.728515625,-1496.2000732421875
315978.4189144827,-656.0219116210938,-1224.6976318359375,-1088.032958984375,-1148.9141845703125,-1066.718017578125,-661.4495239257812,-1298.2437744140625,-1497.23974609375
315978.4229144827,-665.0586547851562,-1235.287109375,-1098.122802734375,-1159.2989501953125,-1076.030517578125,-669.7518920898438,-1308.8677978515625,-1507.6239013671875
315978.4269144827,-669.06298828125,-1238.6529541015625,-1101.4912109375,-1162.69775390625,-1079.98388671875,-674.3192749023438,-1312.1002197265625,-1511.069580078125
315978.4309144827,-664.06494140625,-1232.321044921875,-1095.468505859375,-1156.46875,-1074.951416015625,-670.3059692382812,-1305.5584716796875,-1504.9439697265625
315978.4349144827,-655.4528198242188,-1222.98046875,-1086.4072265625,-1147.14111328125,-1066.3243408203125,-662.0865478515625,-1296.1729736328125,-1495.7384033203125
315978.4389144827,-654.657470703125,-1223.56298828125,-1086.72900390625,-1147.5103759765625,-1065.5604248046875,-660.1905517578125,-1296.9259033203125,-1496.027099609375
315978.44291448273,-663.708251953125,-1233.9957275390625,-1096.7314453125,-1157.863525390625,-1074.7725830078125,-668.5018920898438,-1307.41552734375,-1506.240966796875
315978.4469144827,-669.02197265625,-1238.550537109375,-1101.439697265625,-1162.6636962890625,-1079.9918212890625,-674.4237060546875,-1311.9168701171875,-1510.918212890625
315978.4509144827,-664.892822265625,-1232.947509765625,-1096.2608642578125,-1157.2950439453125,-1075.6907958984375,-671.2252197265625,-1306.20849609375,-1505.5745849609375
315978.4549144827,-656.1567993164062,-1223.4036865234375,-1087.021240234375,-1147.8291015625,-1066.861328125,-662.8624267578125,-1296.676025390625,-1496.16650390625
315978.45891448273,-655.9744262695312,-1224.80810546875,-1088.076904296875,-1148.9097900390625,-1066.829833984375,-661.6083984375,-1298.25732421875,-1497.30517578125
315978.46291448275,-664.7489013671875,-1234.9859619140625,-1097.778076171875,-1158.90869140625,-1075.7552490234375,-669.6489868164062,-1308.43115234375,-1507.2142333984375
315978.4669144827,-669.311767578125,-1238.7978515625,-1101.656494140625,-1162.8431396484375,-1080.1932373046875,-674.7484130859375,-1312.1107177734375,-1511.1070556640625
315978.4709144827,-664.6614990234375,-1232.61181640625,-1095.8701171875,-1156.8538818359375,-1075.2940673828125,-670.9419555664062,-1305.82373046875,-1505.096435546875
315978.47491448274,-656.13427734375,-1223.23681640625,-1086.8123779296875,-1147.591796875,-1066.6280517578125,-662.7734985351562,-1296.460205078125,-1495.8193359375
315978.47891448275,-655.5062866210938,-1224.0306396484375,-1087.3155517578125,-1148.1578369140625,-1066.0615234375,-661.0708618164062,-1297.3515625,-1496.2579345703125
315978.4829144827,-664.289306640625,-1234.2215576171875,-1096.9857177734375,-1158.14990234375,-1074.9658203125,-669.0559692382812,-1307.4893798828125,-1506.1676025390625
315978.4869144827,-668.7981567382812,-1238.0079345703125,-1100.879150390625,-1162.041748046875,-1079.3538818359375,-674.0419921875,-1311.2349853515625,-1510.1134033203125
315978.49091448274,-664.2423095703125,-1231.8858642578125,-1095.1651611328125,-1156.1768798828125,-1074.53076171875,-670.2664794921875,-1305.0509033203125,-1504.2451171875
315978.49491448276,-656.2432250976562,-1223.138916015625,-1086.698974609375,-1147.494384765625,-1066.5146484375,-662.695556640625,-1296.3203125,-1495.62841796875
315978.4989144827,-655.6466674804688,-1224.0146484375,-1087.2840576171875,-1148.1103515625,-1066.0469970703125,-661.0543823242188,-1297.4234619140625,-1496.2254638671875
315978.5029144827,-664.0464477539062,-1233.743896484375,-1096.53662109375,-1157.6851806640625,-1074.5286865234375,-668.6732788085938,-1307.189697265625,-1505.7174072265625
315978.50691448274,-668.5983276367188,-1237.690185546875,-1100.532958984375,-1161.7325439453125,-1079.0750732421875,-673.7871704101562,-1311.1259765625,-1509.87109375
315978.51091448276,-664.3942260742188,-1232.1312255859375,-1095.3350830078125,-1156.31787109375,-1074.7769775390625,-670.4248657226562,-1305.56396484375,-1504.6387939453125
315978.5149144827,-655.9749145507812,-1222.9000244140625,-1086.40966796875,-1147.1676025390625,-1066.2518310546875,-662.3663330078125,-1296.3228759765625,-1495.52001953125
315978.51891448273,-655.3594360351562,-1223.53759765625,-1086.8128662109375,-1147.57177734375,-1065.6058349609375,-660.7216186523438,-1297.0548095703125,-1495.745849609375
315978.52291448275,-664.2078247070312,-1233.764892578125,-1096.5810546875,-1157.646240234375,-1074.5986328125,-668.8181762695312,-1307.33056640625,-1505.7598876953125
315978.5269144827,-668.4149780273438,-1237.4674072265625,-1100.3145751953125,-1161.4482421875,-1078.8712158203125,-673.5858764648438,-1310.95068359375,-1509.687744140625
315978.5309144827,-663.9720458984375,-1231.75,-1094.9598388671875,-1155.859130859375,-1074.415283203125,-670.022216796875,-1305.185791015625,-1504.2955322265625
315978.53491448273,-655.8335571289062,-1223.034912109375,-1086.4871826171875,-1147.1900634765625,-1066.308349609375,-662.2059326171875,-1296.502685546875,-1495.8123779296875
315978.53891448275,-655.9319458007812,-1224.8260498046875,-1087.93701171875,-1148.6884765625,-1066.6590576171875,-661.2112426757812,-1298.4970703125,-1497.4410400390625
315978.5429144827,-665.2550048828125,-1235.7762451171875,-1098.39208984375,-1159.40234375,-1076.3028564453125,-669.7064208984375,-1309.59521484375,-1508.3427734375
315978.5469144827,-669.6724853515625,-1239.6011962890625,-1102.2630615234375,-1163.3516845703125,-1080.687255859375,-674.6065063476562,-1313.3826904296875,-1512.4425048828125
315978.55091448274,-664.8418579101562,-1233.25634765625,-1096.3262939453125,-1157.2281494140625,-1075.620849609375,-670.6546630859375,-1306.910400390625,-1506.3328857421875
315978.55491448275,-656.0283813476562,-1223.552490234375,-1086.9718017578125,-1147.6617431640625,-1066.6170654296875,-662.1864624023438,-1297.2066650390625,-1496.6990966796875
315978.5589144827,-656.11083984375,-1225.0213623046875,-1088.1583251953125,-1148.873291015625,-1066.742919921875,-661.21826171875,-1298.743896484375,-1497.7847900390625
315978.5629144827,-664.8143920898438,-1235.017822265625,-1097.7281494140625,-1158.700927734375,-1075.5224609375,-669.171875,-1308.7274169921875,-1507.488037109375
315978.5669144827,-668.7122192382812,-1238.0859375,-1100.89013671875,-1161.891357421875,-1079.219970703125,-673.58935546875,-1311.696044921875,-1510.615478515625
315978.5709144827,-663.9000854492188,-1231.7745361328125,-1094.971435546875,-1155.7127685546875,-1074.2593994140625,-669.721435546875,-1305.2686767578125,-1504.450927734375
315978.5749144827,-655.7410888671875,-1222.925048828125,-1086.40625,-1146.9273681640625,-1066.0679931640625,-661.9546508789062,-1296.326416015625,-1495.6849365234375
315978.5789144827,-655.9529418945312,-1224.8709716796875,-1088.015380859375,-1148.638427734375,-1066.6005859375,-661.11083984375,-1298.4156494140625,-1497.4434814453125
315978.5829144827,-665.1725463867188,-1235.60546875,-1098.2647705078125,-1159.2569580078125,-1076.1104736328125,-669.5760498046875,-1309.2344970703125,-1508.03857421875
315978.5869144827,-669.2018432617188,-1239.0850830078125,-1101.7769775390625,-1162.795166015625,-1080.2081298828125,-674.2083740234375,-1312.5833740234375,-1511.691162109375
315978.5909144827,-664.2942504882812,-1232.89111328125,-1095.941650390625,-1156.7889404296875,-1075.3240966796875,-670.2529907226562,-1306.134033203125,-1505.77734375
315978.59491448273,-655.615234375,-1223.3857421875,-1086.72802734375,-1147.3939208984375,-1066.526611328125,-661.9536743164062,-1296.4517822265625,-1496.261474609375
315978.5989144827,-655.8185424804688,-1224.865478515625,-1087.96142578125,-1148.7073974609375,-1066.72998046875,-661.101806640625,-1297.9580078125,-1497.318603515625
315978.6029144827,-664.397216796875,-1234.6881103515625,-1097.387451171875,-1158.4091796875,-1075.39404296875,-668.95556640625,-1307.7757568359375,-1506.91845703125
315978.6069144827,-668.3989868164062,-1238.1568603515625,-1100.9161376953125,-1162.0052490234375,-1079.46826171875,-673.5429077148438,-1311.18701171875,-1510.62744140625
315978.61091448274,-664.0874633789062,-1232.6412353515625,-1095.74072265625,-1156.677001953125,-1075.190185546875,-670.1441040039062,-1305.62939453125,-1505.4676513671875
315978.6149144827,-656.3296508789062,-1224.33837890625,-1087.6502685546875,-1148.4111328125,-1067.421875,-662.66357421875,-1297.385986328125,-1497.3345947265625
315978.6189144827,-656.0448608398438,-1225.265625,-1088.3731689453125,-1149.1400146484375,-1067.0391845703125,-661.2357177734375,-1298.4920654296875,-1497.91064453125
315978.6229144827,-664.4071655273438,-1234.59326171875,-1097.400390625,-1158.365234375,-1075.3436279296875,-668.903076171875,-1307.8106689453125,-1506.9259033203125
315978.62691448274,-668.4114990234375,-1238.0035400390625,-1100.8831787109375,-1161.8968505859375,-1079.3223876953125,-673.4569702148438,-1311.0860595703125,-1510.509033203125
315978.6309144827,-663.8501586914062,-1232.24755859375,-1095.471923828125,-1156.2933349609375,-1074.72607421875,-669.7788696289062,-1305.220703125,-1505.0509033203125
315978.6349144827,-656.5594482421875,-1224.3963623046875,-1087.842529296875,-1148.4930419921875,-1067.3924560546875,-662.8114624023438,-1297.35009765625,-1497.28759765625
315978.6389144827,-656.7273559570312,-1225.811279296875,-1089.045654296875,-1149.7750244140625,-1067.53076171875,-661.918701171875,-1298.8448486328125,-1498.33935546875
315978.64291448274,-664.3142700195312,-1234.4942626953125,-1097.387939453125,-1158.3421630859375,-1075.1927490234375,-668.7711791992188,-1307.56982421875,-1506.8310546875
315978.6469144827,-667.4497680664062,-1237.081787109375,-1100.0137939453125,-1161.0145263671875,-1078.3717041015625,-672.4427490234375,-1310.1607666015625,-1509.6533203125
315978.6509144827,-662.7529907226562,-1231.2138671875,-1094.4183349609375,-1155.30810546875,-1073.60693359375,-668.5498657226562,-1304.236572265625,-1504.1031494140625
315978.65491448273,-655.5572509765625,-1223.463134765625,-1086.8778076171875,-1147.6077880859375,-1066.5076904296875,-661.6339111328125,-1296.4302978515625,-1496.4088134765625
315978.65891448274,-656.1207885742188,-1225.21875,-1088.4261474609375,-1149.24951171875,-1067.346923828125,-661.1158447265625,-1298.25634765625,-1497.7578125
315978.6629144827,-663.6572875976562,-1233.8988037109375,-1096.7574462890625,-1157.7347412109375,-1075.187255859375,-668.1237182617188,-1306.83740234375,-1506.153076171875
315978.6669144827,-666.6958618164062,-1236.4642333984375,-1099.3519287109375,-1160.3446044921875,-1078.412109375,-671.8832397460938,-1309.22900390625,-1508.89892578125
315978.67091448273,-662.502197265625,-1231.125,-1094.3094482421875,-1155.124267578125,-1074.218505859375,-668.6138305664062,-1303.81787109375,-1503.8074951171875
315978.67491448275,-655.6607055664062,-1223.66796875,-1087.0826416015625,-1147.7381591796875,-1067.3060302734375,-662.1150512695312,-1296.3203125,-1496.2755126953125
315978.6789144827,-656.9002075195312,-1226.3267822265625,-1089.4873046875,-1150.211181640625,-1068.7423095703125,-662.318359375,-1299.111572265625,-1498.6246337890625
315978.6829144827,-664.8538208007812,-1235.3751220703125,-1098.207275390625,-1159.1385498046875,-1076.8968505859375,-669.592041015625,-1308.21337890625,-1507.533935546875
315978.68691448274,-667.5481567382812,-1237.4000244140625,-1100.3035888671875,-1161.265380859375,-1079.6121826171875,-672.9148559570312,-1310.0478515625,-1509.69873046875
315978.6909144827,-662.6116333007812,-1231.3912353515625,-1094.5692138671875,-1155.3675537109375,-1074.695068359375,-668.8486328125,-1303.9617919921875,-1503.9892578125
315978.6949144827,-655.87353515625,-1224.2015380859375,-1087.5308837890625,-1148.1083984375,-1067.89404296875,-662.3133544921875,-1296.7989501953125,-1496.8480224609375
315978.6989144827,-657.1304931640625,-1226.5322265625,-1089.6756591796875,-1150.298583984375,-1069.03466796875,-662.4527587890625,-1299.236572265625,-1498.7874755859375
315978.70291448274,-664.2717895507812,-1234.35888671875,-1097.303466796875,-1158.0869140625,-1076.083984375,-668.9160766601562,-1307.1357421875,-1506.4013671875
315978.7069144827,-666.5499877929688,-1235.92919921875,-1099.002685546875,-1159.736572265625,-1078.335205078125,-671.7667846679688,-1308.6705322265625,-1508.1859130859375
315978.7109144827,-661.963134765625,-1230.2242431640625,-1093.56103515625,-1154.195556640625,-1073.637939453125,-667.911376953125,-1303.0059814453125,-1502.747802734375
315978.71491448267,-655.76708984375,-1223.6519775390625,-1087.106689453125,-1147.72265625,-1067.3050537109375,-661.8377685546875,-1296.4842529296875,-1496.174072265625
315978.7189144827,-657.74951171875,-1226.956787109375,-1090.1717529296875,-1150.8297119140625,-1069.29443359375,-662.7570190429688,-1299.9344482421875,-1499.2071533203125
315978.7229144827,-664.4456787109375,-1234.4049072265625,-1097.419921875,-1158.2227783203125,-1075.9500732421875,-668.87109375,-1307.41796875,-1506.540283203125
315978.7269144827,-666.0963134765625,-1235.30615234375,-1098.443115234375,-1159.3194580078125,-1077.5478515625,-671.1742553710938,-1308.150390625,-1507.6134033203125
315978.7309144827,-661.6883544921875,-1229.9893798828125,-1093.3087158203125,-1154.1265869140625,-1073.1998291015625,-667.619140625,-1302.759765625,-1502.5623779296875
315978.7349144827,-656.0054321289062,-1224.024169921875,-1087.4423828125,-1148.2313232421875,-1067.5032958984375,-662.146484375,-1296.79296875,-1496.5792236328125
315978.7389144827,-658.083251953125,-1227.406982421875,-1090.5928955078125,-1151.44873046875,-1069.627685546875,-663.22314453125,-1300.2906494140625,-1499.6607666015625
315978.7429144827,-665.175048828125,-1235.405517578125,-1098.3521728515625,-1159.33642578125,-1076.8548583984375,-669.8238525390625,-1308.269775390625,-1507.5509033203125
315978.7469144827,-666.2532348632812,-1235.7977294921875,-1098.8468017578125,-1159.7860107421875,-1077.9539794921875,-671.5509643554688,-1308.5301513671875,-1508.0975341796875
315978.7509144827,-660.9149780273438,-1229.2889404296875,-1092.6192626953125,-1153.399658203125,-1072.5037841796875,-666.9951171875,-1301.859375,-1501.6976318359375
315978.7549144827,-654.7289428710938,-1222.7001953125,-1086.179443359375,-1146.794921875,-1066.1904296875,-660.928466796875,-1295.26220703125,-1495.04345703125
315978.7589144827,-656.8207397460938,-1225.7607421875,-1089.10302734375,-1149.7525634765625,-1068.0723876953125,-661.9686279296875,-1298.503173828125,-1497.726318359375
315978.76291448274,-663.7437133789062,-1233.27978515625,-1096.4571533203125,-1157.3155517578125,-1074.8953857421875,-668.3400268554688,-1306.0985107421875,-1505.12939453125
315978.7669144827,-665.65966796875,-1234.690673828125,-1097.927978515625,-1158.81884765625,-1076.9322509765625,-670.8765258789062,-1307.449462890625,-1506.85205078125
315978.7709144827,-661.1397705078125,-1229.4903564453125,-1092.85302734375,-1153.6279296875,-1072.689208984375,-667.2918701171875,-1302.0767822265625,-1501.929443359375
315978.77491448267,-655.2749633789062,-1223.5145263671875,-1086.9052734375,-1147.6502685546875,-1066.912841796875,-661.6648559570312,-1296.027099609375,-1495.959228515625
315978.7789144827,-656.9541625976562,-1226.2744140625,-1089.50927734375,-1150.28369140625,-1068.4140625,-662.1734619140625,-1299.0406494140625,-1498.4346923828125
315978.7829144827,-663.8661499023438,-1233.7613525390625,-1096.8643798828125,-1157.8035888671875,-1075.19873046875,-668.4449462890625,-1306.611083984375,-1505.8128662109375
315978.7869144827,-665.5597534179688,-1234.690673828125,-1097.9559326171875,-1158.8193359375,-1076.8668212890625,-670.7481079101562,-1307.4599609375,-1506.9154052734375
315978.79091448267,-660.6127319335938,-1228.680419921875,-1092.2000732421875,-1152.93896484375,-1071.8763427734375,-666.6279296875,-1301.2923583984375,-1501.069580078125
315978.7949144827,-654.81787109375,-1222.643798828125,-1086.2373046875,-1146.889892578125,-1066.0369873046875,-660.9954223632812,-1295.1947021484375,-1495.00048828125
315978.7989144827,-656.9811401367188,-1226.0750732421875,-1089.414306640625,-1150.1123046875,-1068.1827392578125,-662.0955200195312,-1298.7564697265625,-1498.156005859375
315978.8029144827,-664.657958984375,-1234.55224609375,-1097.6646728515625,-1158.526611328125,-1075.9151611328125,-669.2398071289062,-1307.26416015625,-1506.5557861328125
315978.8069144827,-666.1253051757812,-1235.3101806640625,-1098.5450439453125,-1159.389404296875,-1077.3739013671875,-671.3076782226562,-1307.97802734375,-1507.5274658203125
315978.8109144827,-661.0913696289062,-1229.2574462890625,-1092.7391357421875,-1153.49951171875,-1072.3270263671875,-667.037109375,-1301.94482421875,-1501.7200927734375
315978.8149144827,-655.1795654296875,-1222.93505859375,-1086.5516357421875,-1147.281982421875,-1066.2489013671875,-661.2372436523438,-1295.6234130859375,-1495.3602294921875
315978.8189144827,-657.458740234375,-1226.353759765625,-1089.7705078125,-1150.5509033203125,-1068.420166015625,-662.5106811523438,-1299.111572265625,-1498.4246826171875
315978.8229144827,-664.5245971679688,-1234.2039794921875,-1097.388916015625,-1158.2523193359375,-1075.5638427734375,-669.1254272460938,-1306.984375,-1506.1275634765625
315978.8269144827,-666.0073852539062,-1234.8370361328125,-1098.1712646484375,-1159.0086669921875,-1076.893798828125,-671.1337890625,-1307.5853271484375,-1506.9034423828125
315978.8309144827,-661.0918579101562,-1228.939208984375,-1092.5108642578125,-1153.27978515625,-1071.980712890625,-667.0136108398438,-1301.544189453125,-1501.22998046875
315978.8349144827,-655.3779296875,-1223.1802978515625,-1086.782958984375,-1147.48583984375,-1066.398681640625,-661.5799560546875,-1295.6768798828125,-1495.4765625
315978.8389144827,-657.7210083007812,-1226.7454833984375,-1090.13427734375,-1150.8701171875,-1068.723876953125,-662.8594360351562,-1299.4617919921875,-1498.763427734375
315978.8429144827,-664.8353271484375,-1234.6097412109375,-1097.7930908203125,-1158.6729736328125,-1075.9266357421875,-669.4561767578125,-1307.3775634765625,-1506.5262451171875
315978.8469144827,-665.9839477539062,-1235.0718994140625,-1098.3701171875,-1159.2314453125,-1077.1256103515625,-671.2876586914062,-1307.6488037109375,-1507.1318359375
315978.85091448267,-661.035888671875,-1229.1021728515625,-1092.6632080078125,-1153.4051513671875,-1072.1685791015625,-667.0975341796875,-1301.6470947265625,-1501.412353515625
315978.8549144827,-655.5972290039062,-1223.451171875,-1087.119140625,-1147.8291015625,-1066.70703125,-661.7927856445312,-1296.04052734375,-1495.84326171875
315978.8589144827,-657.8724365234375,-1226.85693359375,-1090.361083984375,-1151.0909423828125,-1068.8697509765625,-662.9673461914062,-1299.711181640625,-1499.0482177734375
315978.8629144827,-664.7274169921875,-1234.3748779296875,-1097.6767578125,-1158.488525390625,-1075.6807861328125,-669.224853515625,-1307.33251953125,-1506.453369140625
315978.86691448267,-666.5939331054688,-1235.598876953125,-1098.94970703125,-1159.7655029296875,-1077.6007080078125,-671.681396484375,-1308.38818359375,-1507.8421630859375
315978.8709144827,-662.4612426757812,-1230.512939453125,-1094.068603515625,-1154.7501220703125,-1073.4710693359375,-668.31005859375,-1303.1943359375,-1502.9786376953125
315978.8749144827,-656.9861450195312,-1224.905517578125,-1088.531005859375,-1149.1285400390625,-1068.0628662109375,-663.040771484375,-1297.5609130859375,-1497.383056640625
315978.8789144827,-659.3017578125,-1228.451171875,-1091.8538818359375,-1152.536376953125,-1070.428466796875,-664.3317260742188,-1301.2928466796875,-1500.67041015625
315978.8829144827,-666.854736328125,-1236.6165771484375,-1099.824951171875,-1160.665283203125,-1077.9559326171875,-671.3236694335938,-1309.5283203125,-1508.7080078125
315978.8869144827,-668.24560546875,-1237.1142578125,-1100.4625244140625,-1161.285400390625,-1079.21044921875,-673.2645874023438,-1309.94091796875,-1509.2950439453125
315978.8909144827,-663.4159545898438,-1231.307373046875,-1094.8489990234375,-1155.5179443359375,-1074.3787841796875,-669.2058715820312,-1303.9722900390625,-1503.61962890625
315978.8949144827,-657.75048828125,-1225.5069580078125,-1089.12451171875,-1149.7406005859375,-1068.7923583984375,-663.7896728515625,-1298.180419921875,-1497.8397216796875
315978.8989144827,-660.1356201171875,-1229.0491943359375,-1092.4918212890625,-1153.2322998046875,-1071.137939453125,-665.173583984375,-1301.9498291015625,-1501.1141357421875
315978.9029144827,-666.876708984375,-1236.4007568359375,-1099.6756591796875,-1160.639892578125,-1077.8565673828125,-671.424072265625,-1309.3194580078125,-1508.3673095703125
315978.9069144827,-667.6445922851562,-1236.4083251953125,-1099.8089599609375,-1160.8077392578125,-1078.60693359375,-672.7785034179688,-1309.22900390625,-1508.523681640625
315978.9109144827,-662.275390625,-1229.9898681640625,-1093.659912109375,-1154.6346435546875,-1073.21533203125,-668.2101440429688,-1302.7357177734375,-1502.2906494140625
315978.9149144827,-656.9061889648438,-1224.5552978515625,-1088.2542724609375,-1149.23095703125,-1067.9449462890625,-663.0347900390625,-1297.3255615234375,-1496.8905029296875
315978.9189144827,-660.1076049804688,-1229.281005859375,-1092.7081298828125,-1153.8203125,-1071.377685546875,-665.1915893554688,-1302.3680419921875,-1501.540283203125
315978.9229144827,-667.3548583984375,-1237.1776123046875,-1100.4310302734375,-1161.74951171875,-1078.60400390625,-671.88720703125,-1310.369140625,-1509.4368896484375
315978.9269144827,-668.5004272460938,-1237.4783935546875,-1100.8927001953125,-1162.2430419921875,-1079.681640625,-673.71923828125,-1310.49951171875,-1509.8646240234375
315978.9309144827,-663.1552124023438,-1230.9910888671875,-1094.648193359375,-1155.8511962890625,-1074.2244873046875,-669.1298828125,-1303.8243408203125,-1503.478759765625
315978.9349144827,-657.6276245117188,-1225.0413818359375,-1088.82373046875,-1149.9893798828125,-1068.528564453125,-663.7697143554688,-1297.9051513671875,-1497.425537109375
315978.9389144827,-659.7019653320312,-1228.1588134765625,-1091.77294921875,-1152.98193359375,-1070.449951171875,-664.7134399414062,-1301.2598876953125,-1500.23974609375
315978.94291448273,-666.1732788085938,-1235.383056640625,-1098.743896484375,-1160.018798828125,-1077.009765625,-670.7251586914062,-1308.354248046875,-1507.30419921875
315978.9469144827,-667.0145874023438,-1235.5279541015625,-1098.9666748046875,-1160.1827392578125,-1077.860595703125,-672.1644897460938,-1308.354736328125,-1507.597900390625
315978.9509144827,-662.2564086914062,-1229.8070068359375,-1093.45654296875,-1154.5921630859375,-1073.1552734375,-668.2221069335938,-1302.516357421875,-1502.059326171875
315978.9549144827,-657.0725708007812,-1224.6551513671875,-1088.28173828125,-1149.371826171875,-1068.0888671875,-663.1657104492188,-1297.3065185546875,-1496.9364013671875
315978.95891448273,-659.4361572265625,-1228.43359375,-1091.7489013671875,-1152.818603515625,-1070.5439453125,-664.4016723632812,-1301.2708740234375,-1500.5330810546875
315978.9629144827,-666.0333862304688,-1235.9705810546875,-1099.0010986328125,-1160.0543212890625,-1077.37939453125,-670.5562744140625,-1308.86279296875,-1508.03857421875
315978.9669144827,-667.1304931640625,-1236.348876953125,-1099.5167236328125,-1160.553955078125,-1078.474609375,-672.265380859375,-1309.1790771484375,-1508.6480712890625
315978.9709144827,-661.5059814453125,-1229.63671875,-1093.02587890625,-1153.9642333984375,-1072.74267578125,-667.373291015625,-1302.28759765625,-1502.0738525390625
315978.97491448274,-655.5128173828125,-1223.4461669921875,-1086.859375,-1147.688232421875,-1066.700439453125,-661.4640502929688,-1296.0635986328125,-1495.8052978515625
315978.9789144827,-658.2915649414062,-1227.373046875,-1090.6123046875,-1151.415771484375,-1069.455810546875,-663.1886596679688,-1300.1297607421875,-1499.4359130859375
315978.9829144827,-665.4074096679688,-1235.142822265625,-1098.248779296875,-1159.1475830078125,-1076.62255859375,-669.8103637695312,-1308.010986328125,-1507.167724609375
315978.9869144827,-666.5474853515625,-1235.5804443359375,-1098.79736328125,-1159.7496337890625,-1077.7606201171875,-671.5449829101562,-1308.3857421875,-1507.836181640625
315978.9909144827,-661.45703125,-1229.6646728515625,-1093.012451171875,-1153.97119140625,-1072.7467041015625,-667.284912109375,-1302.3370361328125,-1502.1417236328125
315978.9949144827,-655.83203125,-1223.8773193359375,-1087.29248046875,-1148.270263671875,-1067.1251220703125,-661.80126953125,-1296.6396484375,-1496.3524169921875
315978.9989144827,-658.3130493164062,-1227.4034423828125,-1090.6688232421875,-1151.7269287109375,-1069.5052490234375,-663.2481079101562,-1300.382568359375,-1499.5753173828125
315979.0029144827,-664.765380859375,-1234.46435546875,-1097.5662841796875,-1158.8043212890625,-1076.0035400390625,-669.3252563476562,-1307.3680419921875,-1506.4913330078125
315979.0069144827,-666.2152709960938,-1235.3306884765625,-1098.4796142578125,-1159.78857421875,-1077.59130859375,-671.4535522460938,-1308.052001953125,-1507.5054931640625
315979.0109144827,-661.0838623046875,-1229.18603515625,-1092.5648193359375,-1153.807861328125,-1072.4488525390625,-667.1315307617188,-1301.8070068359375,-1501.5128173828125
315979.01491448266,-655.8155517578125,-1223.6484375,-1087.1260986328125,-1148.358642578125,-1067.0931396484375,-661.9966430664062,-1296.223876953125,-1495.9482421875
315979.0189144827,-658.0442504882812,-1227.0372314453125,-1090.3221435546875,-1151.6141357421875,-1069.2818603515625,-663.1736450195312,-1299.7861328125,-1499.07568359375
315979.02291448263,-664.2303466796875,-1233.8653564453125,-1096.9647216796875,-1158.3411865234375,-1075.4959716796875,-668.8685913085938,-1306.728515625,-1505.8212890625
315979.02691448265,-665.1705932617188,-1234.1390380859375,-1097.3134765625,-1158.62841796875,-1076.4796142578125,-670.4353637695312,-1306.9013671875,-1506.2884521484375
315979.03091448266,-660.7051391601562,-1228.73193359375,-1092.0941162109375,-1153.2991943359375,-1072.01220703125,-666.7193603515625,-1301.372314453125,-1501.0926513671875
315979.0349144827,-655.1181030273438,-1223.030029296875,-1086.45166015625,-1147.61376953125,-1066.396728515625,-661.2366943359375,-1295.660888671875,-1495.4041748046875
315979.03891448263,-657.4927368164062,-1226.501708984375,-1089.7330322265625,-1150.878662109375,-1068.660888671875,-662.4922485351562,-1299.3194580078125,-1498.55712890625
315979.04291448265,-663.9185791015625,-1233.396728515625,-1096.481201171875,-1157.6717529296875,-1075.0118408203125,-668.3975219726562,-1306.2789306640625,-1505.3057861328125
315979.04691448266,-665.2310180664062,-1233.9193115234375,-1097.1396484375,-1158.2852783203125,-1076.27587890625,-670.2944946289062,-1306.780517578125,-1506.0296630859375
315979.0509144827,-660.431396484375,-1228.183837890625,-1091.611083984375,-1152.6297607421875,-1071.461181640625,-666.2781982421875,-1301.004150390625,-1500.49658203125
315979.05491448264,-654.7044677734375,-1222.3580322265625,-1085.8316650390625,-1146.7474365234375,-1065.72021484375,-660.690185546875,-1295.2177734375,-1494.6961669921875
315979.05891448265,-657.5596923828125,-1226.5272216796875,-1089.782470703125,-1150.71435546875,-1068.6524658203125,-662.46923828125,-1299.59521484375,-1498.7120361328125
315979.06291448267,-664.5640869140625,-1234.2364501953125,-1097.3050537109375,-1158.4075927734375,-1075.76123046875,-668.9935302734375,-1307.2930908203125,-1506.39990234375
315979.0669144826,-665.2655029296875,-1234.33740234375,-1097.4769287109375,-1158.47607421875,-1076.5526123046875,-670.3809204101562,-1307.2286376953125,-1506.6466064453125
315979.07091448264,-660.63720703125,-1228.75634765625,-1092.0797119140625,-1153.0179443359375,-1071.8988037109375,-666.509033203125,-1301.525146484375,-1501.218017578125
315979.07491448266,-655.3604125976562,-1223.203369140625,-1086.631591796875,-1147.59326171875,-1066.5015869140625,-661.3346557617188,-1296.004638671875,-1495.617431640625
315979.07891448267,-657.9173583984375,-1226.8763427734375,-1090.15625,-1151.2164306640625,-1068.99169921875,-662.8269653320312,-1299.9224853515625,-1499.0667724609375
315979.0829144826,-664.9602661132812,-1234.495849609375,-1097.63525390625,-1158.8348388671875,-1076.050048828125,-669.3966674804688,-1307.619873046875,-1506.6322021484375
315979.08691448264,-665.6387329101562,-1234.2674560546875,-1097.5543212890625,-1158.7493896484375,-1076.5946044921875,-670.713623046875,-1307.3045654296875,-1506.48974609375
315979.09091448266,-660.6322021484375,-1228.138916015625,-1091.6719970703125,-1152.841552734375,-1071.47412109375,-666.510498046875,-1301.006591796875,-1500.466064453125
315979.0949144827,-654.9992065429688,-1222.2615966796875,-1085.8656005859375,-1147.01123046875,-1065.7557373046875,-661.0164184570312,-1295.11376953125,-1494.4864501953125
315979.09891448263,-657.5716552734375,-1225.7977294921875,-1089.2484130859375,-1150.4630126953125,-1068.15283203125,-662.51220703125,-1298.8433837890625,-1497.65185546875
315979.10291448265,-664.0919189453125,-1232.72021484375,-1096.06494140625,-1157.4024658203125,-1074.5926513671875,-668.5648803710938,-1305.7967529296875,-1504.4029541015625
315979.10691448266,-665.0546875,-1232.8521728515625,-1096.3563232421875,-1157.7451171875,-1075.4869384765625,-670.1416015625,-1305.8411865234375,-1504.6737060546875
315979.1109144827,-659.959228515625,-1226.740478515625,-1090.4434814453125,-1151.8118896484375,-1070.306640625,-665.7741088867188,-1299.5462646484375,-1498.70849609375
315979.11491448263,-654.5086059570312,-1221.25537109375,-1084.9559326171875,-1146.25634765625,-1064.8853759765625,-660.4053955078125,-1294.0172119140625,-1493.2164306640625
315979.11891448265,-657.3163452148438,-1225.3861083984375,-1088.8387451171875,-1150.1328125,-1067.7696533203125,-662.2124633789062,-1298.311279296875,-1497.1168212890625
315979.12291448266,-663.8941040039062,-1232.7012939453125,-1095.943603515625,-1157.28759765625,-1074.434814453125,-668.3525390625,-1305.6563720703125,-1504.396484375
315979.1269144827,-664.979248046875,-1233.1043701171875,-1096.4246826171875,-1157.7412109375,-1075.5509033203125,-670.087158203125,-1305.9451904296875,-1504.9495849609375
315979.13091448264,-659.6714477539062,-1226.7794189453125,-1090.3016357421875,-1151.503173828125,-1070.18017578125,-665.5537719726562,-1299.413330078125,-1498.7430419921875
315979.13491448265,-654.2243041992188,-1221.38330078125,-1084.9158935546875,-1146.028076171875,-1064.8389892578125,-660.2430419921875,-1293.7264404296875,-1493.3372802734375
315979.13891448267,-657.048583984375,-1225.54443359375,-1088.834228515625,-1149.9444580078125,-1067.7501220703125,-662.015625,-1297.95556640625,-1497.30859375
315979.1429144827,-663.955078125,-1233.0894775390625,-1096.1993408203125,-1157.4599609375,-1074.7000732421875,-668.4159545898438,-1305.5489501953125,-1504.837158203125
315979.14691448264,-664.9442749023438,-1233.4805908203125,-1096.6414794921875,-1157.9365234375,-1075.7852783203125,-670.0901489257812,-1305.746826171875,-1505.3922119140625
315979.15091448266,-659.7269287109375,-1227.2720947265625,-1090.666259765625,-1151.857421875,-1070.5279541015625,-665.6456909179688,-1299.5018310546875,-1499.342041015625
315979.1549144827,-654.505615234375,-1221.8638916015625,-1085.3441162109375,-1146.501220703125,-1065.235107421875,-660.4883422851562,-1294.1181640625,-1493.914306640625
315979.1589144827,-657.814453125,-1226.245361328125,-1089.605224609375,-1150.815673828125,-1068.4691162109375,-662.739013671875,-1298.6859130859375,-1498.027587890625
315979.16291448264,-664.3622436523438,-1233.3631591796875,-1096.5865478515625,-1157.9200439453125,-1075.0238037109375,-668.8331298828125,-1305.876220703125,-1505.118896484375
315979.16691448266,-665.0051879882812,-1233.3077392578125,-1096.589599609375,-1157.949951171875,-1075.65283203125,-670.0596923828125,-1305.8427734375,-1505.310791015625
315979.1709144827,-659.6295166015625,-1227.0283203125,-1090.50390625,-1151.7684326171875,-1070.2691650390625,-665.4198608398438,-1299.561279296875,-1499.2860107421875
315979.1749144827,-654.2932739257812,-1221.59814453125,-1085.1407470703125,-1146.3348388671875,-1064.89990234375,-660.152587890625,-1294.0936279296875,-1493.846435546875
315979.17891448265,-657.2354125976562,-1225.7628173828125,-1089.1080322265625,-1150.3021240234375,-1067.8460693359375,-662.048583984375,-1298.4287109375,-1497.7528076171875
315979.18291448266,-664.2653198242188,-1233.25830078125,-1096.4576416015625,-1157.7796630859375,-1074.8165283203125,-668.6128540039062,-1305.95166015625,-1505.1348876953125
315979.1869144827,-664.8523559570312,-1233.1083984375,-1096.417236328125,-1157.76611328125,-1075.446044921875,-669.904296875,-1305.6109619140625,-1505.12841796875
315979.19091448263,-659.6430053710938,-1226.9407958984375,-1090.4554443359375,-1151.7784423828125,-1070.2586669921875,-665.519287109375,-1299.3729248046875,-1499.1781005859375
315979.19491448265,-654.2543334960938,-1221.590087890625,-1085.11474609375,-1146.4466552734375,-1064.971923828125,-660.2730102539062,-1293.9637451171875,-1493.8438720703125
315979.19891448267,-657.457275390625,-1226.0640869140625,-1089.3768310546875,-1150.7332763671875,-1068.2177734375,-662.36181640625,-1298.6719970703125,-1498.0989990234375
315979.2029144827,-664.2488403320312,-1233.375244140625,-1096.5335693359375,-1157.9874267578125,-1074.9638671875,-668.6173095703125,-1306.0560302734375,-1505.32568359375
315979.20691448264,-665.1975708007812,-1233.5440673828125,-1096.81494140625,-1158.272216796875,-1075.8717041015625,-670.1900634765625,-1306.0775146484375,-1505.6534423828125
315979.21091448265,-660.3619384765625,-1227.69775390625,-1091.1904296875,-1152.5628662109375,-1070.941650390625,-666.0908203125,-1300.15673828125,-1500.0084228515625
315979.2149144826,-655.260498046875,-1222.5728759765625,-1086.094482421875,-1147.409423828125,-1065.8616943359375,-661.0648803710938,-1295.079833984375,-1494.91650390625
315979.2189144826,-658.2211303710938,-1226.718505859375,-1090.080322265625,-1151.4466552734375,-1068.7923583984375,-662.9068603515625,-1299.4908447265625,-1498.86083984375
315979.22291448264,-664.92529296875,-1233.959228515625,-1097.194091796875,-1158.634521484375,-1075.50390625,-669.2228393554688,-1306.7845458984375,-1506.003662109375
315979.22691448266,-665.562255859375,-1233.700927734375,-1097.076171875,-1158.527587890625,-1076.053466796875,-670.5792236328125,-1306.3663330078125,-1505.8363037109375
315979.2309144826,-660.089111328125,-1227.0257568359375,-1090.6483154296875,-1152.0596923828125,-1070.3995361328125,-665.8525390625,-1299.5302734375,-1499.2021484375
315979.23491448263,-654.6224975585938,-1221.479248046875,-1085.1207275390625,-1146.4891357421875,-1064.9364013671875,-660.486328125,-1293.870361328125,-1493.566162109375
315979.23891448264,-657.5746459960938,-1225.7423095703125,-1089.133544921875,-1150.533447265625,-1067.9559326171875,-662.393798828125,-1298.2503662109375,-1497.58447265625
315979.24291448266,-664.2183227539062,-1233.0460205078125,-1096.23681640625,-1157.7056884765625,-1074.61767578125,-668.5288696289062,-1305.6644287109375,-1504.8311767578125
315979.2469144826,-665.0366821289062,-1232.9775390625,-1096.2943115234375,-1157.8021240234375,-1075.3375244140625,-669.9507446289062,-1305.4530029296875,-1504.84912109375
315979.25091448263,-659.8368530273438,-1226.8824462890625,-1090.3795166015625,-1151.8079833984375,-1070.166259765625,-665.5457763671875,-1299.22998046875,-1498.9498291015625
315979.25491448265,-654.5995483398438,-1221.5601806640625,-1085.11328125,-1146.5211181640625,-1064.889404296875,-660.3754272460938,-1293.9197998046875,-1493.6400146484375
315979.25891448266,-657.2988891601562,-1225.6343994140625,-1088.939697265625,-1150.3656005859375,-1067.689208984375,-662.0690307617188,-1298.0689697265625,-1497.4954833984375
315979.2629144827,-664.1318969726562,-1233.2408447265625,-1096.365234375,-1157.8560791015625,-1074.694091796875,-668.450439453125,-1305.767822265625,-1505.1279296875
315979.2669144827,-665.16259765625,-1233.53857421875,-1096.786376953125,-1158.293212890625,-1075.7642822265625,-670.151611328125,-1305.953125,-1505.6324462890625
315979.27091448265,-659.6400146484375,-1226.914306640625,-1090.4090576171875,-1151.7899169921875,-1070.1531982421875,-665.4208984375,-1299.237548828125,-1499.1680908203125
315979.27491448267,-654.4456787109375,-1221.4661865234375,-1085.0693359375,-1146.3477783203125,-1064.824951171875,-660.2954711914062,-1293.809814453125,-1493.6170654296875
315979.2789144827,-657.40478515625,-1225.5360107421875,-1088.9776611328125,-1150.3031005859375,-1067.6942138671875,-662.146484375,-1298.097900390625,-1497.39111328125
315979.2829144827,-663.859130859375,-1232.48291015625,-1095.773681640625,-1157.1990966796875,-1074.0975341796875,-668.09423828125,-1305.1072998046875,-1504.280517578125
315979.28691448265,-664.5101318359375,-1232.408447265625,-1095.7967529296875,-1157.169677734375,-1074.7559814453125,-669.332763671875,-1304.9969482421875,-1504.4224853515625
315979.29091448267,-659.3072509765625,-1226.4302978515625,-1089.951416015625,-1151.2083740234375,-1069.695068359375,-664.958251953125,-1298.871826171875,-1498.6461181640625
315979.2949144827,-654.2063598632812,-1221.3818359375,-1084.91796875,-1146.2099609375,-1064.671142578125,-659.915283203125,-1293.7469482421875,-1493.6160888671875
315979.2989144827,-657.502685546875,-1226.0870361328125,-1089.390869140625,-1150.8206787109375,-1068.06689453125,-662.114013671875,-1298.69140625,-1498.2049560546875
315979.30291448266,-664.25732421875,-1233.32275390625,-1096.4962158203125,-1158.096435546875,-1074.7764892578125,-668.4000244140625,-1306.05810546875,-1505.4046630859375
315979.3069144827,-664.9342651367188,-1233.0899658203125,-1096.395263671875,-1157.99951171875,-1075.3875732421875,-669.8478393554688,-1305.6553955078125,-1505.2427978515625
315979.3109144827,-659.7289428710938,-1226.9063720703125,-1090.4554443359375,-1152.0078125,-1070.19970703125,-665.486328125,-1299.3714599609375,-1499.2310791015625
315979.3149144827,-654.99072265625,-1222.235595703125,-1085.793701171875,-1147.3179931640625,-1065.5274658203125,-660.8145751953125,-1294.7281494140625,-1494.572265625
315979.31891448266,-657.8399658203125,-1226.3372802734375,-1089.68212890625,-1151.25732421875,-1068.3326416015625,-662.4967041015625,-1299.1241455078125,-1498.5177001953125
315979.3229144827,-664.0035400390625,-1233.0150146484375,-1096.2064208984375,-1157.859130859375,-1074.455810546875,-668.190185546875,-1305.8172607421875,-1505.1444091796875
315979.3269144827,-664.6599731445312,-1232.9775390625,-1096.2587890625,-1157.8646240234375,-1075.1827392578125,-669.5390625,-1305.6138916015625,-1505.2783203125
315979.3309144827,-659.66845703125,-1226.96826171875,-1090.446044921875,-1151.9093017578125,-1070.15625,-665.3124389648438,-1299.498291015625,-1499.388916015625
315979.33491448266,-654.8148803710938,-1222.1671142578125,-1085.6678466796875,-1147.0806884765625,-1065.3695068359375,-660.5043334960938,-1294.6546630859375,-1494.5858154296875
315979.3389144827,-657.6146240234375,-1226.3828125,-1089.608154296875,-1151.0889892578125,-1068.263671875,-662.2059326171875,-1299.0582275390625,-1498.6505126953125
315979.3429144827,-664.0779418945312,-1233.333740234375,-1096.408203125,-1157.9320068359375,-1074.6800537109375,-668.2206420898438,-1306.10205078125,-1505.51953125
315979.34691448265,-664.3247680664062,-1232.667724609375,-1095.902099609375,-1157.3470458984375,-1074.825439453125,-669.0909423828125,-1305.3192138671875,-1504.9420166015625
315979.35091448267,-658.9165649414062,-1226.0426025390625,-1089.533203125,-1150.8671875,-1069.23291015625,-664.49560546875,-1298.4805908203125,-1498.3472900390625
315979.3549144827,-653.751220703125,-1220.7747802734375,-1084.3214111328125,-1145.5408935546875,-1064.0440673828125,-659.4711303710938,-1293.1453857421875,-1492.964111328125
315979.3589144827,-656.2247314453125,-1224.39892578125,-1087.7357177734375,-1148.9847412109375,-1066.4332275390625,-660.8390502929688,-1296.96240234375,-1496.2755126953125
315979.3629144827,-662.68408203125,-1231.298828125,-1094.5057373046875,-1155.8626708984375,-1072.883056640625,-666.9046630859375,-1303.8343505859375,-1503.028564453125
315979.36691448267,-663.1776733398438,-1230.922607421875,-1094.2744140625,-1155.5833740234375,-1073.3221435546875,-668.0682373046875,-1303.3367919921875,-1502.7777099609375
315979.3709144827,-658.02978515625,-1224.9259033203125,-1088.45263671875,-1149.6885986328125,-1068.2177734375,-663.6637573242188,-1297.2520751953125,-1497.0238037109375
315979.3749144827,-653.3160400390625,-1220.3101806640625,-1083.832763671875,-1145.038818359375,-1063.5899658203125,-658.9695434570312,-1292.65478515625,-1492.448486328125
315979.3789144827,-656.3756103515625,-1224.5811767578125,-1087.87451171875,-1149.12451171875,-1066.591552734375,-660.8525390625,-1297.1436767578125,-1496.4693603515625
315979.3829144827,-662.7344970703125,-1231.524169921875,-1094.6336669921875,-1156.02099609375,-1072.98291015625,-666.7587890625,-1304.1275634765625,-1503.396728515625
315979.3869144827,-663.65576171875,-1231.7210693359375,-1094.94140625,-1156.396728515625,-1073.9456787109375,-668.3465576171875,-1304.2230224609375,-1503.803466796875
315979.3909144827,-658.7162475585938,-1225.8636474609375,-1089.2894287109375,-1150.671875,-1069.091552734375,-664.2648315429688,-1298.159912109375,-1498.094970703125
315979.3949144827,-653.9535522460938,-1221.2379150390625,-1084.6446533203125,-1145.998046875,-1064.4493408203125,-659.5845336914062,-1293.506103515625,-1493.42626953125
315979.3989144827,-657.0350952148438,-1225.6468505859375,-1088.8172607421875,-1150.2930908203125,-1067.5858154296875,-661.5994262695312,-1298.074951171875,-1497.6234130859375
315979.4029144827,-663.50439453125,-1232.6812744140625,-1095.685791015625,-1157.3375244140625,-1074.10302734375,-667.6646118164062,-1305.1153564453125,-1504.6173095703125
315979.4069144827,-663.6502685546875,-1231.8653564453125,-1095.0247802734375,-1156.6829833984375,-1074.134033203125,-668.4744262695312,-1304.12158203125,-1503.8829345703125
315979.4109144827,-657.9948120117188,-1225.163818359375,-1088.529052734375,-1150.0838623046875,-1068.402587890625,-663.6238403320312,-1297.275634765625,-1497.2786865234375
315979.4149144827,-653.0877685546875,-1220.3526611328125,-1083.703857421875,-1145.144775390625,-1063.575439453125,-658.7901611328125,-1292.4783935546875,-1492.45654296875
315979.4189144827,-656.54248046875,-1225.0299072265625,-1088.1793212890625,-1149.7086181640625,-1066.9852294921875,-661.0983276367188,-1297.365966796875,-1496.9324951171875
315979.4229144827,-663.13671875,-1232.061767578125,-1095.0848388671875,-1156.761962890625,-1073.52001953125,-667.25244140625,-1304.454833984375,-1503.9068603515625
315979.4269144827,-663.3120727539062,-1231.394775390625,-1094.5616455078125,-1156.2314453125,-1073.657470703125,-668.1651611328125,-1303.6634521484375,-1503.394775390625
315979.4309144827,-658.1746826171875,-1225.2911376953125,-1088.678955078125,-1150.2412109375,-1068.508544921875,-663.7747192382812,-1297.513427734375,-1497.533935546875
315979.4349144827,-653.644287109375,-1220.8048095703125,-1084.2269287109375,-1145.7523193359375,-1064.0196533203125,-659.25732421875,-1293.030517578125,-1493.0765380859375
315979.4389144827,-656.7672729492188,-1225.15380859375,-1088.3865966796875,-1150.0133056640625,-1067.1011962890625,-661.2422485351562,-1297.6292724609375,-1497.20068359375
315979.44291448273,-663.1246948242188,-1232.0557861328125,-1095.1297607421875,-1156.8424072265625,-1073.4730224609375,-667.200439453125,-1304.59521484375,-1504.0767822265625
315979.4469144827,-663.7866821289062,-1231.900390625,-1095.1102294921875,-1156.7664794921875,-1074.099609375,-668.5453491210938,-1304.3369140625,-1504.1031494140625
315979.4509144827,-658.7062377929688,-1225.7833251953125,-1089.2454833984375,-1150.7742919921875,-1068.9647216796875,-664.2322998046875,-1298.141357421875,-1498.178955078125
315979.4549144827,-653.6177978515625,-1220.5789794921875,-1084.1151123046875,-1145.599365234375,-1063.7838134765625,-659.12841796875,-1292.988037109375,-1492.9326171875
315979.45891448273,-656.8297729492188,-1225.0263671875,-1088.338134765625,-1149.8580322265625,-1067.0152587890625,-661.3396606445312,-1297.56689453125,-1497.080322265625
315979.4629144827,-663.190185546875,-1231.81640625,-1094.993896484375,-1156.656005859375,-1073.3326416015625,-667.3268432617188,-1304.3798828125,-1503.8189697265625
315979.4669144827,-663.7442016601562,-1231.5537109375,-1094.8739013671875,-1156.527099609375,-1073.84228515625,-668.5169067382812,-1304.0582275390625,-1503.7744140625
315979.4709144827,-658.7217407226562,-1225.6788330078125,-1089.18896484375,-1150.746826171875,-1068.9461669921875,-664.3397216796875,-1298.0465087890625,-1498.1014404296875
315979.47491448274,-653.65380859375,-1220.6329345703125,-1084.1624755859375,-1145.7022705078125,-1063.8602294921875,-659.226806640625,-1293.031982421875,-1493.0465087890625
315979.4789144827,-656.5914306640625,-1224.83154296875,-1088.1363525390625,-1149.7005615234375,-1066.73046875,-660.9664306640625,-1297.450927734375,-1497.017333984375
315979.4829144827,-662.9373779296875,-1231.8070068359375,-1094.9388427734375,-1156.5791015625,-1073.1712646484375,-666.9136962890625,-1304.453857421875,-1503.9613037109375
315979.4869144827,-663.9775390625,-1232.0732421875,-1095.3260498046875,-1157.00927734375,-1074.2359619140625,-668.6422729492188,-1304.647216796875,-1504.39697265625
315979.4909144827,-658.6522827148438,-1225.82275390625,-1089.262451171875,-1150.8282470703125,-1068.88427734375,-664.0419921875,-1298.3392333984375,-1498.34130859375
315979.4949144827,-653.8991088867188,-1221.200927734375,-1084.6551513671875,-1146.052490234375,-1064.2384033203125,-659.3412475585938,-1293.7393798828125,-1493.7254638671875
315979.4989144827,-657.242919921875,-1225.788818359375,-1089.0401611328125,-1150.54443359375,-1067.5567626953125,-661.5239868164062,-1298.5626220703125,-1498.092529296875
315979.5029144827,-663.3765258789062,-1232.5748291015625,-1095.6387939453125,-1157.2850341796875,-1073.8492431640625,-667.3483276367188,-1305.317626953125,-1504.8536376953125
315979.5069144827,-663.815673828125,-1232.39501953125,-1095.54443359375,-1157.1981201171875,-1074.434326171875,-668.5379028320312,-1305.02734375,-1504.9295654296875
315979.5109144827,-658.37548828125,-1226.0335693359375,-1089.3773193359375,-1151.02099609375,-1069.0445556640625,-663.9000854492188,-1298.5220947265625,-1498.7354736328125
315979.5149144827,-653.5608520507812,-1221.0860595703125,-1084.48681640625,-1146.1539306640625,-1064.1690673828125,-659.1149291992188,-1293.5206298828125,-1493.640625
315979.5189144827,-657.265380859375,-1225.9681396484375,-1089.16748046875,-1150.877685546875,-1067.797119140625,-661.6778564453125,-1298.590087890625,-1498.2379150390625
315979.5229144827,-664.2118530273438,-1233.5875244140625,-1096.591552734375,-1158.398193359375,-1074.857421875,-668.2376098632812,-1306.27294921875,-1505.8563232421875
315979.5269144827,-664.5086059570312,-1233.1368408203125,-1096.2618408203125,-1158.0458984375,-1075.189697265625,-669.2178344726562,-1305.716796875,-1505.6195068359375
315979.5309144827,-658.966552734375,-1226.62255859375,-1089.9488525390625,-1151.6361083984375,-1069.6416015625,-664.4446411132812,-1299.03369140625,-1499.27001953125
315979.5349144827,-654.0054931640625,-1221.5791015625,-1084.96337890625,-1146.623046875,-1064.586669921875,-659.4771118164062,-1293.977294921875,-1494.1351318359375
315979.5389144827,-656.9551391601562,-1225.621337890625,-1088.8387451171875,-1150.5179443359375,-1067.3614501953125,-661.272705078125,-1298.2208251953125,-1497.845703125
315979.5429144827,-663.5448608398438,-1232.7337646484375,-1095.7957763671875,-1157.557861328125,-1073.9801025390625,-667.5092163085938,-1305.3486328125,-1504.91259765625
315979.5469144827,-663.9385375976562,-1232.3060302734375,-1095.513427734375,-1157.2530517578125,-1074.391357421875,-668.6777954101562,-1304.8140869140625,-1504.6827392578125
315979.5509144827,-658.5993041992188,-1225.941162109375,-1089.3883056640625,-1150.97412109375,-1068.9876708984375,-664.1524047851562,-1298.4332275390625,-1498.4876708984375
315979.5549144827,-653.4684448242188,-1220.7373046875,-1084.2259521484375,-1145.7242431640625,-1063.75439453125,-659.0010375976562,-1293.201904296875,-1493.1864013671875
315979.5589144827,-656.9356689453125,-1225.3880615234375,-1088.64892578125,-1150.201171875,-1067.1361083984375,-661.3396606445312,-1297.9620361328125,-1497.54443359375
315979.5629144827,-663.448974609375,-1232.3919677734375,-1095.5054931640625,-1157.11572265625,-1073.68994140625,-667.5167236328125,-1304.85009765625,-1504.4354248046875
315979.5669144827,-663.7781982421875,-1231.976806640625,-1095.191650390625,-1156.77099609375,-1074.0865478515625,-668.6188354492188,-1304.2315673828125,-1504.1656494140625
315979.5709144827,-658.5538940429688,-1225.7967529296875,-1089.2274169921875,-1150.7432861328125,-1068.8353271484375,-664.0949096679688,-1298.087890625,-1498.2698974609375
315979.5749144827,-653.709716796875,-1220.8067626953125,-1084.3013916015625,-1145.748291015625,-1063.7928466796875,-659.06494140625,-1293.30029296875,-1493.2818603515625
315979.5789144827,-656.7758178710938,-1224.906494140625,-1088.2462158203125,-1149.669677734375,-1066.6800537109375,-660.9689331054688,-1297.578369140625,-1497.0758056640625
315979.5829144827,-663.2741088867188,-1231.7454833984375,-1095.00390625,-1156.5101318359375,-1073.08984375,-667.0540771484375,-1304.5152587890625,-1503.8299560546875
315979.5869144827,-663.6492919921875,-1231.1759033203125,-1094.5997314453125,-1156.10400390625,-1073.349609375,-668.0557861328125,-1303.9398193359375,-1503.457275390625
315979.5909144827,-658.3465576171875,-1224.830078125,-1088.5040283203125,-1149.896484375,-1067.9869384765625,-663.5288696289062,-1297.537353515625,-1497.2711181640625
315979.59491448273,-653.6602783203125,-1220.1741943359375,-1083.872802734375,-1145.22021484375,-1063.2891845703125,-658.8041381835938,-1292.8985595703125,-1492.5394287109375
315979.5989144827,-657.5706787109375,-1225.3670654296875,-1088.854248046875,-1150.3021240234375,-1067.20361328125,-661.552490234375,-1298.352294921875,-1497.5404052734375
315979.6029144827,-664.1853637695312,-1232.7987060546875,-1096.06298828125,-1157.6937255859375,-1074.090087890625,-667.823974609375,-1305.8427734375,-1505.098876953125
315979.6069144827,-664.5420532226562,-1232.557373046875,-1095.9151611328125,-1157.55029296875,-1074.630615234375,-668.8886108398438,-1305.5394287109375,-1505.164306640625
315979.61091448274,-660.1970825195312,-1227.4874267578125,-1091.0010986328125,-1152.58984375,-1070.4659423828125,-665.3009643554688,-1300.447021484375,-1500.36962890625
315979.6149144827,-655.541259765625,-1222.97900390625,-1086.4656982421875,-1148.035888671875,-1065.8875732421875,-660.6436767578125,-1295.9656982421875,-1495.828857421875
315979.6189144827,-658.8011474609375,-1227.535400390625,-1090.7562255859375,-1152.3040771484375,-1069.1370849609375,-662.7684936523438,-1300.7747802734375,-1500.1463623046875
315979.6229144827,-665.2135620117188,-1234.2939453125,-1097.386962890625,-1159.0181884765625,-1075.4654541015625,-668.8016967773438,-1307.555908203125,-1506.8255615234375
315979.62691448274,-665.110107421875,-1233.2977294921875,-1096.5540771484375,-1158.1533203125,-1075.3375244140625,-669.4781494140625,-1306.3873291015625,-1505.94873046875
315979.6309144827,-659.4506225585938,-1226.59814453125,-1090.124755859375,-1151.6630859375,-1069.673095703125,-664.6649780273438,-1299.5672607421875,-1499.364013671875
315979.6349144827,-654.9522705078125,-1222.1302490234375,-1085.6678466796875,-1147.2060546875,-1065.1871337890625,-660.1555786132812,-1295.078369140625,-1494.80810546875
315979.6389144827,-659.1064453125,-1227.61181640625,-1090.8951416015625,-1152.5543212890625,-1069.369873046875,-663.1641845703125,-1300.7513427734375,-1500.06494140625
315979.6429144827,-665.1710815429688,-1234.2449951171875,-1097.35302734375,-1159.1375732421875,-1075.5408935546875,-668.8975830078125,-1307.408935546875,-1506.738037109375
315979.6469144827,-664.7913818359375,-1233.0625,-1096.3028564453125,-1158.0394287109375,-1075.2021484375,-669.290283203125,-1306.0631103515625,-1505.68994140625
315979.6509144827,-659.2952880859375,-1226.4766845703125,-1089.96142578125,-1151.567626953125,-1069.605712890625,-664.5415649414062,-1299.37939453125,-1499.1995849609375
315979.65491448273,-654.614501953125,-1221.738037109375,-1085.274169921875,-1146.782470703125,-1064.8330078125,-659.7948608398438,-1294.6741943359375,-1494.37451171875
315979.6589144827,-658.4039916992188,-1226.804443359375,-1090.1063232421875,-1151.66357421875,-1068.595458984375,-662.457275390625,-1299.8814697265625,-1499.171630859375
315979.6629144827,-664.8803100585938,-1233.75439453125,-1096.90087890625,-1158.5770263671875,-1075.1202392578125,-668.6188354492188,-1306.847900390625,-1506.0826416015625
315979.66691448266,-664.8963012695312,-1232.84814453125,-1096.136962890625,-1157.7996826171875,-1075.0498046875,-669.2777709960938,-1305.876220703125,-1505.3182373046875
315979.6709144827,-659.1588745117188,-1226.093505859375,-1089.5921630859375,-1151.201416015625,-1069.2579345703125,-664.3042602539062,-1298.9866943359375,-1498.7125244140625
315979.6749144827,-654.4456787109375,-1221.5361328125,-1085.038330078125,-1146.611083984375,-1064.62060546875,-659.603515625,-1294.3619384765625,-1494.1431884765625
315979.6789144827,-658.3080444335938,-1226.6021728515625,-1089.906982421875,-1151.567138671875,-1068.424072265625,-662.306396484375,-1299.65771484375,-1498.9493408203125
315979.68291448266,-664.0360107421875,-1232.6951904296875,-1095.8961181640625,-1157.6627197265625,-1074.1734619140625,-667.7529907226562,-1305.769287109375,-1504.9410400390625
315979.6869144827,-664.161376953125,-1231.8369140625,-1095.24462890625,-1156.9962158203125,-1074.22900390625,-668.5433959960938,-1304.8544921875,-1504.193115234375
315979.6909144827,-658.9915161132812,-1225.769287109375,-1089.38134765625,-1151.007568359375,-1069.14306640625,-664.1868896484375,-1298.6414794921875,-1498.267333984375
315979.6949144827,-654.2612915039062,-1221.27880859375,-1084.87939453125,-1146.419189453125,-1064.5821533203125,-659.5036010742188,-1294.1265869140625,-1493.7529296875
315979.69891448267,-658.1282348632812,-1226.4322509765625,-1089.8349609375,-1151.4027099609375,-1068.4715576171875,-662.242431640625,-1299.5018310546875,-1498.6910400390625
315979.7029144827,-664.5435791015625,-1233.2423095703125,-1096.5206298828125,-1158.17431640625,-1074.9249267578125,-668.385009765625,-1306.2584228515625,-1505.4346923828125
315979.7069144827,-664.268310546875,-1232.1322021484375,-1095.5379638671875,-1157.201171875,-1074.695556640625,-668.9560546875,-1304.908447265625,-1504.4139404296875
315979.7109144827,-658.6203002929688,-1225.6234130859375,-1089.175048828125,-1150.6993408203125,-1069.14599609375,-664.1668701171875,-1298.137451171875,-1497.984130859375
315979.71491448267,-654.4386596679688,-1221.439208984375,-1085.0078125,-1146.547119140625,-1064.85498046875,-659.8917846679688,-1294.0057373046875,-1493.7554931640625
315979.7189144827,-658.0282592773438,-1226.2144775390625,-1089.5806884765625,-1151.2628173828125,-1068.3116455078125,-662.2978515625,-1299.0621337890625,-1498.3248291015625
315979.7229144827,-664.2877807617188,-1232.826171875,-1096.06005859375,-1157.863525390625,-1074.4737548828125,-668.169189453125,-1305.7802734375,-1504.93359375
315979.7269144827,-664.182861328125,-1231.8953857421875,-1095.2806396484375,-1157.041748046875,-1074.394287109375,-668.8246459960938,-1304.670166015625,-1504.1656494140625
315979.7309144827,-658.8840942382812,-1225.793212890625,-1089.3443603515625,-1150.9915771484375,-1069.2064208984375,-664.2887573242188,-1298.5125732421875,-1498.2783203125
315979.7349144827,-654.7484130859375,-1221.890380859375,-1085.425537109375,-1147.0302734375,-1065.2056884765625,-660.130615234375,-1294.6326904296875,-1494.364501953125
315979.7389144827,-658.7906494140625,-1227.279541015625,-1090.5699462890625,-1152.2845458984375,-1069.285888671875,-663.0697631835938,-1300.2008056640625,-1499.5423583984375
315979.7429144827,-665.065185546875,-1234.021240234375,-1097.1826171875,-1159.03466796875,-1075.6048583984375,-669.0594482421875,-1306.973388671875,-1506.2689208984375
315979.7469144827,-665.0926513671875,-1233.2822265625,-1096.55859375,-1158.3607177734375,-1075.6707763671875,-669.8553466796875,-1306.090087890625,-1505.7099609375
315979.7509144827,-659.7189331054688,-1226.9908447265625,-1090.470947265625,-1152.1221923828125,-1070.287109375,-665.2659912109375,-1299.701171875,-1499.59375
315979.7549144827,-654.5860595703125,-1221.96728515625,-1085.4525146484375,-1146.9813232421875,-1065.147216796875,-660.065185546875,-1294.7171630859375,-1494.5029296875
315979.7589144827,-658.1756591796875,-1226.8319091796875,-1090.060791015625,-1151.64453125,-1068.7393798828125,-662.565673828125,-1299.72412109375,-1499.0897216796875
315979.76291448274,-664.75244140625,-1234.046630859375,-1097.0897216796875,-1158.79638671875,-1075.4833984375,-668.7921752929688,-1306.9827880859375,-1506.3653564453125
315979.7669144827,-665.0501708984375,-1233.614013671875,-1096.761474609375,-1158.4700927734375,-1075.8541259765625,-669.8048706054688,-1306.44580078125,-1506.16650390625
315979.7709144827,-659.6060180664062,-1227.22216796875,-1090.5513916015625,-1152.181640625,-1070.41357421875,-665.1550903320312,-1299.886474609375,-1499.904052734375
315979.7749144827,-655.1231079101562,-1222.751220703125,-1086.115966796875,-1147.755126953125,-1065.8851318359375,-660.561767578125,-1295.5054931640625,-1495.3736572265625
315979.77891448274,-658.9325561523438,-1227.978515625,-1091.093505859375,-1152.862548828125,-1069.7705078125,-663.213134765625,-1301.0220947265625,-1500.47607421875
315979.7829144827,-665.2630004882812,-1234.7921142578125,-1097.74462890625,-1159.6181640625,-1076.1129150390625,-669.1524047851562,-1307.902587890625,-1507.32763671875
315979.7869144827,-665.1825561523438,-1233.8568115234375,-1096.9747314453125,-1158.744384765625,-1076.054443359375,-669.8568115234375,-1306.8323974609375,-1506.5472412109375
315979.7909144827,-659.5845336914062,-1227.30810546875,-1090.65380859375,-1152.322021484375,-1070.46142578125,-665.0616455078125,-1300.1722412109375,-1500.1563720703125
315979.79491448274,-655.323974609375,-1223.1158447265625,-1086.4681396484375,-1148.160888671875,-1066.1343994140625,-660.6806640625,-1295.9810791015625,-1495.918212890625
315979.7989144827,-659.21435546875,-1228.42919921875,-1091.513671875,-1153.3516845703125,-1070.0963134765625,-663.4140014648438,-1301.522216796875,-1501.090087890625
315979.8029144827,-665.4259033203125,-1235.28369140625,-1098.182861328125,-1160.1602783203125,-1076.4542236328125,-669.2703247070312,-1308.5135498046875,-1508.0579833984375
315979.80691448273,-665.6541748046875,-1234.7001953125,-1097.730224609375,-1159.6756591796875,-1076.6839599609375,-670.1546020507812,-1307.9200439453125,-1507.7203369140625
315979.81091448275,-660.6502075195312,-1228.8543701171875,-1092.05517578125,-1153.9107666015625,-1071.782958984375,-665.9319458007812,-1301.92041015625,-1502.017333984375
315979.8149144827,-655.9469604492188,-1224.1580810546875,-1087.3724365234375,-1149.173583984375,-1067.0181884765625,-661.1318359375,-1297.169189453125,-1497.146240234375
315979.8189144827,-659.8677978515625,-1229.2874755859375,-1092.2860107421875,-1154.1605224609375,-1070.8731689453125,-663.8781127929688,-1302.48291015625,-1501.9984130859375
315979.82291448273,-666.2237548828125,-1236.2574462890625,-1099.0721435546875,-1161.0994873046875,-1077.3953857421875,-669.9417724609375,-1309.473876953125,-1509.03076171875
315979.82691448275,-666.3436279296875,-1235.682373046875,-1098.572021484375,-1160.6024169921875,-1077.5977783203125,-670.7391357421875,-1308.796875,-1508.7430419921875
315979.8309144827,-660.7576293945312,-1229.1131591796875,-1092.2021484375,-1154.112548828125,-1071.9752197265625,-665.8984985351562,-1302.13818359375,-1502.3106689453125
315979.8349144827,-655.7161254882812,-1223.9117431640625,-1087.107666015625,-1148.893310546875,-1066.7239990234375,-660.7196655273438,-1296.9898681640625,-1496.9564208984375
315979.83891448274,-659.4336547851562,-1228.871826171875,-1091.85888671875,-1153.6759033203125,-1070.3975830078125,-663.2681274414062,-1302.1971435546875,-1501.7076416015625
315979.84291448275,-666.165771484375,-1236.1510009765625,-1098.9697265625,-1160.9261474609375,-1077.22705078125,-669.6199951171875,-1309.583740234375,-1509.0811767578125
315979.8469144827,-665.67919921875,-1234.9749755859375,-1097.885009765625,-1159.7760009765625,-1076.850830078125,-669.8908081054688,-1308.3212890625,-1508.16748046875
315979.8509144827,-660.5877685546875,-1228.9931640625,-1092.062744140625,-1153.8692626953125,-1071.782958984375,-665.5732421875,-1302.1541748046875,-1502.360107421875
315979.85491448274,-656.2487182617188,-1224.6787109375,-1087.795654296875,-1149.6016845703125,-1067.3638916015625,-661.1093139648438,-1297.8870849609375,-1497.962646484375
315979.85891448276,-660.3374633789062,-1230.11083984375,-1092.992919921875,-1154.822021484375,-1071.5101318359375,-664.117431640625,-1303.55810546875,-1503.19189453125
315979.8629144828,-665.992919921875,-1235.8306884765625,-1098.6639404296875,-1160.5699462890625,-1076.9832763671875,-669.5775756835938,-1309.171142578125,-1508.6485595703125
315979.8669144827,-665.2760009765625,-1234.0941162109375,-1097.1126708984375,-1159.022705078125,-1076.16943359375,-669.700439453125,-1307.24462890625,-1506.9564208984375
315979.87091448274,-660.7586059570312,-1229.05517578125,-1092.1795654296875,-1154.07763671875,-1071.9522705078125,-665.9854125976562,-1302.1572265625,-1502.2891845703125
315979.87491448276,-656.9441528320312,-1225.684326171875,-1088.786376953125,-1150.6912841796875,-1068.399169921875,-662.1384887695312,-1298.9267578125,-1499.0472412109375
315979.8789144828,-660.024169921875,-1229.8909912109375,-1092.806640625,-1154.8270263671875,-1071.38623046875,-664.1129150390625,-1303.30078125,-1502.951171875
315979.88291448273,-665.31494140625,-1234.9359130859375,-1097.8590087890625,-1159.951904296875,-1076.243408203125,-669.1753540039062,-1308.2069091796875,-1507.6318359375
315979.88691448275,-664.36669921875,-1232.8846435546875,-1096.01708984375,-1158.055419921875,-1075.1387939453125,-669.0274658203125,-1305.9476318359375,-1505.6295166015625
315979.89091448276,-659.4901123046875,-1227.233154296875,-1090.5404052734375,-1152.4979248046875,-1070.392578125,-664.9292602539062,-1300.230712890625,-1500.21826171875
315979.8949144828,-655.1445922851562,-1223.0673828125,-1086.3677978515625,-1148.289794921875,-1066.0684814453125,-660.4993286132812,-1296.090576171875,-1495.98974609375
315979.89891448274,-658.9325561523438,-1227.9990234375,-1091.072509765625,-1153.0413818359375,-1069.736083984375,-663.1676635742188,-1301.20947265625,-1500.60302734375
315979.90291448275,-664.8643188476562,-1234.46728515625,-1097.35595703125,-1159.4373779296875,-1075.7891845703125,-668.7796630859375,-1307.69970703125,-1507.0987548828125
315979.90691448277,-665.1725463867188,-1234.3609619140625,-1097.291015625,-1159.3299560546875,-1076.420166015625,-669.829833984375,-1307.4898681640625,-1507.3131103515625
315979.9109144828,-660.1431274414062,-1228.9132080078125,-1091.914794921875,-1153.8912353515625,-1071.761474609375,-665.561279296875,-1301.9488525390625,-1502.232666015625
315979.91491448274,-656.2197265625,-1225.28515625,-1088.2528076171875,-1150.2032470703125,-1067.9365234375,-661.4850463867188,-1298.3502197265625,-1498.610107421875
315979.91891448275,-660.4228515625,-1230.4520263671875,-1093.252197265625,-1155.231201171875,-1071.88427734375,-664.5010986328125,-1303.7359619140625,-1503.4232177734375
315979.92291448277,-666.6538696289062,-1236.976318359375,-1099.630615234375,-1161.6695556640625,-1078.032470703125,-670.4423828125,-1310.173828125,-1509.8565673828125
315979.9269144828,-666.3026733398438,-1235.6649169921875,-1098.484619140625,-1160.4615478515625,-1077.61376953125,-670.8385620117188,-1308.7354736328125,-1508.66552734375
315979.93091448274,-660.367919921875,-1228.34716796875,-1091.4931640625,-1153.36865234375,-1071.36376953125,-665.6571655273438,-1301.3582763671875,-1501.3199462890625
315979.93491448276,-655.1865844726562,-1222.80615234375,-1086.0809326171875,-1147.8565673828125,-1065.793212890625,-660.3329467773438,-1295.8406982421875,-1495.4996337890625
315979.9389144828,-658.9635620117188,-1227.63134765625,-1090.7362060546875,-1152.5203857421875,-1069.3868408203125,-662.9298706054688,-1300.895751953125,-1500.0274658203125
315979.9429144828,-665.1910400390625,-1234.2659912109375,-1097.260009765625,-1159.1036376953125,-1075.663330078125,-668.89111328125,-1307.555419921875,-1506.6571044921875
315979.94691448275,-665.1290893554688,-1233.3717041015625,-1096.5335693359375,-1158.334228515625,-1075.6378173828125,-669.5965576171875,-1306.5621337890625,-1505.9771728515625
315979.95091448276,-660.0277099609375,-1227.39501953125,-1090.7657470703125,-1152.4368896484375,-1070.579345703125,-665.195068359375,-1300.60791015625,-1500.2557373046875
315979.9549144828,-655.4228515625,-1223.04150390625,-1086.4136962890625,-1148.032470703125,-1066.0340576171875,-660.4523315429688,-1296.298828125,-1495.970703125
315979.9589144828,-659.4306640625,-1228.356201171875,-1091.4866943359375,-1153.2562255859375,-1070.0263671875,-663.2935791015625,-1301.802001953125,-1501.0960693359375
315979.9629144828,-665.906005859375,-1235.36865234375,-1098.3197021484375,-1160.2501220703125,-1076.611572265625,-669.4931030273438,-1308.873291015625,-1508.1534423828125
315979.96691448276,-665.8055419921875,-1234.6756591796875,-1097.6966552734375,-1159.540771484375,-1076.6810302734375,-670.0806274414062,-1308.180419921875,-1507.8187255859375
315979.9709144828,-660.432861328125,-1228.572021484375,-1091.740478515625,-1153.509521484375,-1071.4342041015625,-665.4918212890625,-1301.94580078125,-1501.971923828125
315979.9749144828,-656.22021484375,-1224.4483642578125,-1087.6217041015625,-1149.3758544921875,-1067.1346435546875,-661.1472778320312,-1297.7872314453125,-1497.7633056640625
315979.9789144828,-659.9667358398438,-1229.31494140625,-1092.300048828125,-1154.0816650390625,-1070.759765625,-663.7647094726562,-1302.82861328125,-1502.297119140625
315979.98291448277,-665.7466430664062,-1235.4820556640625,-1098.32373046875,-1160.165283203125,-1076.5860595703125,-669.3417358398438,-1308.9742431640625,-1508.3548583984375
315979.9869144828,-665.9519653320312,-1234.96337890625,-1097.916015625,-1159.7520751953125,-1076.9212646484375,-670.2879638671875,-1308.333740234375,-1508.070068359375
315979.9909144828,-660.4988403320312,-1228.5445556640625,-1091.696533203125,-1153.467041015625,-1071.4442138671875,-665.5482788085938,-1301.824462890625,-1501.85546875
315979.9949144828,-655.8235473632812,-1223.9921875,-1087.1640625,-1148.894775390625,-1066.70751953125,-660.6646728515625,-1297.429443359375,-1497.3341064453125
315979.99891448277,-659.8972778320312,-1229.387939453125,-1092.343017578125,-1154.20654296875,-1070.80615234375,-663.6063232421875,-1303.118408203125,-1502.56640625
315980.0029144828,-666.45751953125,-1236.437255859375,-1099.22900390625,-1161.2269287109375,-1077.48486328125,-669.9452514648438,-1310.1832275390625,-1509.621337890625
315980.0069144828,-665.7531127929688,-1234.7596435546875,-1097.730224609375,-1159.6331787109375,-1076.7384033203125,-670.0686645507812,-1308.2952880859375,-1508.051025390625
315980.0109144828,-659.8707885742188,-1227.624267578125,-1090.91357421875,-1152.6378173828125,-1070.6473388671875,-664.9662475585938,-1300.985107421875,-1500.917724609375
315980.0149144828,-655.5497436523438,-1223.2188720703125,-1086.6080322265625,-1148.268798828125,-1066.17041015625,-660.5567626953125,-1296.4837646484375,-1496.31298828125
315980.0189144828,-659.1109008789062,-1227.860107421875,-1091.0694580078125,-1152.740234375,-1069.5892333984375,-663.0057983398438,-1301.2379150390625,-1500.6199951171875
315980.0229144828,-665.1900634765625,-1234.5443115234375,-1097.536376953125,-1159.29638671875,-1075.878662109375,-668.8881225585938,-1307.9395751953125,-1507.3980712890625
315980.0269144828,-664.7614135742188,-1233.464111328125,-1096.546630859375,-1158.3397216796875,-1075.644775390625,-669.236328125,-1306.7879638671875,-1506.564697265625
315980.0309144828,-659.355712890625,-1227.0992431640625,-1090.4019775390625,-1152.1895751953125,-1070.24169921875,-664.6290283203125,-1300.28515625,-1500.293701171875
315980.0349144828,-655.3329467773438,-1223.1339111328125,-1086.461181640625,-1148.283203125,-1066.1209716796875,-660.4348754882812,-1296.3983154296875,-1496.219482421875
315980.0389144828,-659.2947998046875,-1228.0999755859375,-1091.2308349609375,-1153.118896484375,-1069.825927734375,-663.22265625,-1301.59912109375,-1500.832763671875
315980.0429144828,-665.20751953125,-1234.3509521484375,-1097.3184814453125,-1159.3209228515625,-1075.7607421875,-668.89208984375,-1307.794677734375,-1507.0303955078125
315980.0469144828,-665.0321655273438,-1233.5015869140625,-1096.5426025390625,-1158.5694580078125,-1075.750244140625,-669.4611206054688,-1306.76806640625,-1506.46875
315980.0509144828,-659.4212036132812,-1227.00732421875,-1090.252685546875,-1152.171630859375,-1070.1436767578125,-664.5725708007812,-1300.1693115234375,-1500.1883544921875
315980.0549144828,-654.9722290039062,-1222.6727294921875,-1085.9395751953125,-1147.7930908203125,-1065.600830078125,-659.9337768554688,-1295.88720703125,-1495.7728271484375
315980.0589144828,-658.8571166992188,-1227.754150390625,-1090.8087158203125,-1152.7412109375,-1069.4097900390625,-662.694580078125,-1301.2025146484375,-1500.594970703125
315980.0629144828,-665.1390991210938,-1234.4388427734375,-1097.357421875,-1159.3323974609375,-1075.73681640625,-668.6882934570312,-1307.9930419921875,-1507.294189453125
315980.0669144828,-665.3734130859375,-1234.05859375,-1097.05517578125,-1158.9986572265625,-1076.1949462890625,-669.7049560546875,-1307.46240234375,-1507.166748046875
315980.0709144828,-660.1156005859375,-1228.02392578125,-1091.2078857421875,-1153.0953369140625,-1071.073974609375,-665.237548828125,-1301.286376953125,-1501.33740234375
315980.07491448283,-655.669189453125,-1223.831787109375,-1086.9892578125,-1148.767333984375,-1066.6485595703125,-660.6182250976562,-1297.17822265625,-1497.079345703125
315980.0789144828,-659.7479248046875,-1229.344970703125,-1092.215087890625,-1154.091064453125,-1070.8096923828125,-663.6143188476562,-1302.8665771484375,-1502.4329833984375
315980.0829144828,-665.5712280273438,-1235.2276611328125,-1098.0513916015625,-1160.057373046875,-1076.4652099609375,-669.2453002929688,-1308.675537109375,-1508.1729736328125
315980.0869144828,-664.5985107421875,-1233.12939453125,-1096.1763916015625,-1158.0859375,-1075.35302734375,-669.0879516601562,-1306.392333984375,-1506.1241455078125
315980.0909144828,-658.7962036132812,-1226.36279296875,-1089.6217041015625,-1151.42919921875,-1069.5491943359375,-664.074462890625,-1299.484375,-1499.470458984375
315980.0949144828,-654.6610107421875,-1222.3265380859375,-1085.58984375,-1147.4029541015625,-1065.361083984375,-659.7838745117188,-1295.4990234375,-1495.315185546875
315980.0989144828,-658.7227172851562,-1227.3790283203125,-1090.4664306640625,-1152.3800048828125,-1069.199462890625,-662.7045288085938,-1300.704345703125,-1500.0374755859375
315980.1029144828,-664.334716796875,-1233.116943359375,-1096.1644287109375,-1158.15380859375,-1074.6611328125,-668.0242919921875,-1306.543212890625,-1505.7353515625
315980.1069144828,-663.8975830078125,-1231.7794189453125,-1094.9674072265625,-1156.9058837890625,-1074.218994140625,-668.3834838867188,-1304.9783935546875,-1504.5003662109375
315980.1109144828,-658.763671875,-1225.9481201171875,-1089.2774658203125,-1151.1834716796875,-1069.2694091796875,-664.031982421875,-1299.003662109375,-1498.90234375
315980.11491448275,-655.4613647460938,-1223.3192138671875,-1086.5406494140625,-1148.5111083984375,-1066.3377685546875,-660.5357666015625,-1296.5262451171875,-1496.46533203125
315980.11891448277,-659.8643188476562,-1229.1630859375,-1092.1441650390625,-1154.1370849609375,-1070.8671875,-663.8861083984375,-1302.587890625,-1502.1297607421875
315980.1229144828,-665.7236328125,-1235.380126953125,-1098.24072265625,-1160.3756103515625,-1076.7484130859375,-669.5316162109375,-1308.8214111328125,-1508.3558349609375
315980.1269144828,-665.4383544921875,-1234.2574462890625,-1097.236572265625,-1159.361328125,-1076.463623046875,-669.9727172851562,-1307.5908203125,-1507.4625244140625
315980.13091448275,-659.5125732421875,-1227.2880859375,-1090.4964599609375,-1152.4764404296875,-1070.4219970703125,-664.7788696289062,-1300.54296875,-1500.636962890625
315980.13491448277,-655.1770629882812,-1223.010009765625,-1086.2713623046875,-1148.1588134765625,-1065.93310546875,-660.2230224609375,-1296.3897705078125,-1496.27197265625
315980.1389144828,-659.5570678710938,-1228.5390625,-1091.614013671875,-1153.5216064453125,-1070.192138671875,-663.4524536132812,-1302.1627197265625,-1501.5302734375
315980.1429144828,-665.6397094726562,-1234.810546875,-1097.7930908203125,-1159.8260498046875,-1076.2164306640625,-669.3092651367188,-1308.36328125,-1507.7337646484375
315980.14691448276,-665.001220703125,-1233.4056396484375,-1096.51708984375,-1158.4801025390625,-1075.7452392578125,-669.5655517578125,-1306.6920166015625,-1506.48583984375
315980.1509144828,-659.1688842773438,-1226.94482421875,-1090.1842041015625,-1152.02978515625,-1070.1287841796875,-664.4701538085938,-1300.1273193359375,-1500.270751953125
315980.1549144828,-655.3619384765625,-1223.4786376953125,-1086.6640625,-1148.5010986328125,-1066.3602294921875,-660.42236328125,-1296.801025390625,-1496.81005859375
315980.1589144828,-659.7463989257812,-1228.7904052734375,-1091.8359375,-1153.743408203125,-1070.4859619140625,-663.7267456054688,-1302.265625,-1501.6986083984375
315980.16291448276,-665.1340942382812,-1234.16259765625,-1097.1876220703125,-1159.151611328125,-1075.623291015625,-668.8666381835938,-1307.620849609375,-1506.89892578125
315980.1669144828,-664.1633911132812,-1232.203125,-1095.396484375,-1157.3404541015625,-1074.5931396484375,-668.7067260742188,-1305.4970703125,-1505.0584716796875
315980.1709144828,-658.95703125,-1226.1934814453125,-1089.5701904296875,-1151.440185546875,-1069.4827880859375,-664.2667846679688,-1299.412353515625,-1499.255126953125
315980.1749144828,-655.3099365234375,-1222.817626953125,-1086.200439453125,-1148.057373046875,-1065.877197265625,-660.3994140625,-1296.14697265625,-1495.8697509765625
315980.17891448276,-659.60400390625,-1228.594482421875,-1091.6815185546875,-1153.6004638671875,-1070.2801513671875,-663.6028442382812,-1302.103759765625,-1501.4818115234375
315980.1829144828,-665.4638671875,-1234.94189453125,-1097.84912109375,-1159.8619384765625,-1076.2498779296875,-669.2493286132812,-1308.4595947265625,-1507.878662109375
315980.1869144828,-665.0946655273438,-1233.872802734375,-1096.869873046875,-1158.8592529296875,-1076.010009765625,-669.6275024414062,-1307.257080078125,-1507.0543212890625
315980.19091448275,-659.6759643554688,-1227.7576904296875,-1090.899169921875,-1152.837646484375,-1070.771728515625,-665.0386962890625,-1300.960205078125,-1501.1575927734375
315980.19491448277,-655.7700805664062,-1224.03466796875,-1087.1905517578125,-1149.1395263671875,-1066.830322265625,-660.9349365234375,-1297.278076171875,-1497.362548828125
315980.1989144828,-659.4446411132812,-1228.818359375,-1091.7589111328125,-1153.7723388671875,-1070.339599609375,-663.493408203125,-1302.2586669921875,-1501.802490234375
315980.2029144828,-664.9237670898438,-1234.370849609375,-1097.2330322265625,-1159.262451171875,-1075.6458740234375,-668.7422485351562,-1307.8271484375,-1507.2252197265625
315980.20691448275,-664.6329956054688,-1233.033447265625,-1096.1314697265625,-1158.1298828125,-1075.255126953125,-669.1354370117188,-1306.4761962890625,-1506.0731201171875
315980.21091448277,-658.816162109375,-1226.25341796875,-1089.57666015625,-1151.43017578125,-1069.4207763671875,-664.0859375,-1299.6097412109375,-1499.39501953125
315980.2149144827,-654.6220092773438,-1222.3060302734375,-1085.600830078125,-1147.3609619140625,-1065.2156982421875,-659.7079467773438,-1295.69140625,-1495.3402099609375
315980.21891448274,-659.0989379882812,-1228.1253662109375,-1091.181884765625,-1153.0289306640625,-1069.7305908203125,-663.0772705078125,-1301.7509765625,-1500.960205078125
315980.22291448276,-665.18603515625,-1234.538818359375,-1097.4578857421875,-1159.4312744140625,-1075.84912109375,-668.989501953125,-1308.0914306640625,-1507.3226318359375
315980.2269144828,-664.7614135742188,-1233.226806640625,-1096.30126953125,-1158.26220703125,-1075.43798828125,-669.3497314453125,-1306.6590576171875,-1506.18408203125
315980.23091448273,-658.9560546875,-1226.4302978515625,-1089.7515869140625,-1151.5850830078125,-1069.6026611328125,-664.2952880859375,-1299.7935791015625,-1499.4989013671875
315980.23491448275,-655.024169921875,-1222.7232666015625,-1086.0545654296875,-1147.8575439453125,-1065.65185546875,-660.1286010742188,-1296.1429443359375,-1495.7369384765625
315980.23891448276,-659.3947143554688,-1228.310791015625,-1091.40478515625,-1153.270263671875,-1069.9044189453125,-663.2926025390625,-1301.9818115234375,-1501.1351318359375
315980.2429144828,-665.40087890625,-1234.68115234375,-1097.6502685546875,-1159.5706787109375,-1075.945556640625,-669.0604858398438,-1308.4306640625,-1507.56396484375
315980.24691448273,-664.3392333984375,-1232.74267578125,-1095.8731689453125,-1157.773193359375,-1074.9034423828125,-668.7686767578125,-1306.3233642578125,-1505.809326171875
315980.25091448275,-658.8760986328125,-1226.435302734375,-1089.7445068359375,-1151.590087890625,-1069.5076904296875,-664.0634765625,-1299.843994140625,-1499.6328125
315980.25491448276,-655.1470947265625,-1223.140380859375,-1086.4256591796875,-1148.227783203125,-1065.900634765625,-660.1351318359375,-1296.72900390625,-1496.3853759765625
315980.2589144828,-659.6719970703125,-1229.066162109375,-1092.087646484375,-1153.97216796875,-1070.4945068359375,-663.5753784179688,-1302.924072265625,-1502.1357421875
315980.2629144828,-666.078857421875,-1235.9251708984375,-1098.7947998046875,-1160.812255859375,-1077.042724609375,-669.7783813476562,-1309.7890625,-1509.0262451171875
315980.26691448275,-665.7741088867188,-1234.9974365234375,-1097.9725341796875,-1159.984375,-1076.98876953125,-670.3089599609375,-1308.6925048828125,-1508.373779296875
315980.27091448277,-660.1875610351562,-1228.591064453125,-1091.7340087890625,-1153.6729736328125,-1071.4862060546875,-665.496337890625,-1302.2056884765625,-1502.164306640625
315980.2749144828,-656.0848388671875,-1224.78662109375,-1087.906005859375,-1149.77001953125,-1067.4273681640625,-661.1997680664062,-1298.442626953125,-1498.307373046875
315980.2789144828,-660.3869018554688,-1230.319580078125,-1093.205322265625,-1155.1212158203125,-1071.66845703125,-664.38623046875,-1304.1680908203125,-1503.6185302734375
315980.28291448276,-666.2976684570312,-1236.51220703125,-1099.2879638671875,-1161.27490234375,-1077.5848388671875,-670.05517578125,-1310.4100341796875,-1509.8446044921875
315980.2869144828,-665.7106323242188,-1234.9788818359375,-1097.9375,-1159.9010009765625,-1076.999267578125,-670.2330322265625,-1308.71240234375,-1508.4732666015625
315980.2909144828,-659.3407592773438,-1227.2900390625,-1090.56689453125,-1152.4224853515625,-1070.3441162109375,-664.5430908203125,-1300.88623046875,-1500.7723388671875
315980.2949144828,-655.2984619140625,-1223.461181640625,-1086.73193359375,-1148.49609375,-1066.27783203125,-660.3429565429688,-1297.080810546875,-1496.779052734375
315980.29891448276,-659.7279052734375,-1229.3834228515625,-1092.3184814453125,-1154.1815185546875,-1070.838134765625,-663.7546997070312,-1303.1644287109375,-1502.4964599609375
315980.3029144828,-665.98193359375,-1236.050537109375,-1098.8212890625,-1160.8087158203125,-1077.1790771484375,-669.8438110351562,-1309.820556640625,-1509.1746826171875
315980.3069144828,-665.7855834960938,-1235.2257080078125,-1098.1043701171875,-1160.0743408203125,-1077.152587890625,-670.3499145507812,-1308.9752197265625,-1508.6929931640625
315980.3109144828,-660.6681518554688,-1229.5443115234375,-1092.5667724609375,-1154.4962158203125,-1072.2769775390625,-665.98095703125,-1303.203369140625,-1503.3687744140625
315980.31491448276,-656.37109375,-1225.3106689453125,-1088.39013671875,-1150.2376708984375,-1067.819580078125,-661.4775390625,-1298.98974609375,-1499.0042724609375
315980.3189144828,-659.94775390625,-1229.8675537109375,-1092.7930908203125,-1154.640625,-1071.1539306640625,-663.9620361328125,-1303.70849609375,-1503.1973876953125
315980.3229144828,-665.6571655273438,-1235.723876953125,-1098.5665283203125,-1160.4864501953125,-1076.7384033203125,-669.40771484375,-1309.6431884765625,-1508.9853515625
315980.3269144828,-664.958251953125,-1233.978759765625,-1097.0496826171875,-1158.937744140625,-1075.9171142578125,-669.4381713867188,-1307.835693359375,-1507.4140625
315980.33091448277,-659.21484375,-1226.974365234375,-1090.3265380859375,-1152.1451416015625,-1069.875,-664.3522338867188,-1300.726318359375,-1500.4710693359375
315980.3349144828,-655.2764892578125,-1223.1129150390625,-1086.49462890625,-1148.2557373046875,-1065.7857666015625,-660.1216430664062,-1296.9468994140625,-1496.4892578125
315980.3389144828,-659.2553100585938,-1228.3636474609375,-1091.4656982421875,-1153.2882080078125,-1069.780029296875,-663.0462646484375,-1302.3604736328125,-1501.453857421875
315980.3429144828,-665.3324584960938,-1234.801025390625,-1097.7615966796875,-1159.77099609375,-1075.935546875,-668.9115600585938,-1308.796875,-1507.8736572265625
315980.34691448277,-664.8707885742188,-1233.5970458984375,-1096.677490234375,-1158.616455078125,-1075.578857421875,-669.21484375,-1307.41796875,-1506.8690185546875
315980.3509144828,-659.0999145507812,-1227.084716796875,-1090.3310546875,-1152.0677490234375,-1069.91796875,-664.2118530273438,-1300.79931640625,-1500.5430908203125
315980.3549144828,-655.3494262695312,-1223.60205078125,-1086.8304443359375,-1148.510009765625,-1066.157470703125,-660.2340087890625,-1297.37353515625,-1496.9649658203125
315980.3589144828,-659.8782958984375,-1229.284912109375,-1092.2764892578125,-1154.0416259765625,-1070.60986328125,-663.6902465820312,-1303.1029052734375,-1502.2821044921875
315980.3629144828,-665.3514404296875,-1234.778564453125,-1097.7181396484375,-1159.5062255859375,-1075.9700927734375,-669.0764770507812,-1308.484130859375,-1507.576904296875
315980.3669144828,-664.30078125,-1232.664794921875,-1095.8321533203125,-1157.5638427734375,-1074.8199462890625,-668.7637329101562,-1306.3038330078125,-1505.6004638671875
315980.3709144828,-658.2940673828125,-1225.770751953125,-1089.1475830078125,-1150.7742919921875,-1068.8372802734375,-663.4979248046875,-1299.300537109375,-1498.88232421875
315980.3749144828,-654.2987670898438,-1221.8524169921875,-1085.256103515625,-1146.8388671875,-1064.6541748046875,-659.2393188476562,-1295.3896484375,-1494.8011474609375
315980.3789144828,-658.9924926757812,-1227.642333984375,-1090.8746337890625,-1152.5638427734375,-1069.21142578125,-662.7645263671875,-1301.498779296875,-1500.3896484375
315980.3829144828,-664.4132080078125,-1233.3717041015625,-1096.501708984375,-1158.249267578125,-1074.7255859375,-668.0757446289062,-1307.26611328125,-1506.140625
315980.3869144828,-663.4674682617188,-1231.45068359375,-1094.79150390625,-1156.49072265625,-1073.75927734375,-667.9493408203125,-1305.21923828125,-1504.3824462890625
315980.39091448276,-657.8184814453125,-1224.66064453125,-1088.2757568359375,-1149.9034423828125,-1067.9544677734375,-663.03076171875,-1298.3447265625,-1497.6558837890625
315980.3949144828,-653.78515625,-1220.8057861328125,-1084.42578125,-1146.03759765625,-1063.8721923828125,-658.78515625,-1294.5108642578125,-1493.6590576171875
315980.3989144828,-658.35400390625,-1226.6800537109375,-1090.0323486328125,-1151.7294921875,-1068.4345703125,-662.222412109375,-1300.5859375,-1499.321533203125
315980.4029144828,-664.2103271484375,-1232.8526611328125,-1096.0780029296875,-1157.902587890625,-1074.349365234375,-667.9353637695312,-1306.7205810546875,-1505.498046875
315980.40691448277,-663.5048828125,-1231.23486328125,-1094.6236572265625,-1156.4246826171875,-1073.635986328125,-668.039306640625,-1304.9219970703125,-1504.020263671875
315980.4109144828,-657.7449951171875,-1224.4603271484375,-1088.0943603515625,-1149.8375244140625,-1067.8095703125,-663.0098266601562,-1298.0164794921875,-1497.338623046875
315980.41491448274,-654.10791015625,-1220.953125,-1084.583740234375,-1146.223876953125,-1064.0540771484375,-659.1138916015625,-1294.519287109375,-1493.609130859375
315980.41891448275,-658.642822265625,-1226.7459716796875,-1090.147705078125,-1151.781982421875,-1068.572509765625,-662.5961303710938,-1300.422607421875,-1499.107177734375
315980.42291448277,-664.1159057617188,-1232.449951171875,-1095.7342529296875,-1157.4989013671875,-1074.0645751953125,-667.9578247070312,-1306.0535888671875,-1504.78466796875
315980.4269144828,-663.5048828125,-1230.9027099609375,-1094.349365234375,-1156.10400390625,-1073.3956298828125,-668.0532836914062,-1304.4488525390625,-1503.4537353515625
315980.4309144828,-657.8504028320312,-1224.40283203125,-1088.0389404296875,-1149.7115478515625,-1067.7257080078125,-663.083740234375,-1297.8316650390625,-1497.1522216796875
315980.43491448276,-654.3202514648438,-1221.29833984375,-1084.8909912109375,-1146.545166015625,-1064.2818603515625,-659.2733154296875,-1294.8370361328125,-1494.0496826171875
315980.4389144828,-659.21435546875,-1227.642333984375,-1090.9560546875,-1152.7421875,-1069.2784423828125,-663.0167846679688,-1301.4547119140625,-1500.3072509765625
315980.4429144828,-664.7958984375,-1233.441162109375,-1096.6710205078125,-1158.54248046875,-1074.8509521484375,-668.450439453125,-1307.2586669921875,-1506.10205078125
315980.4469144828,-663.8536376953125,-1231.64111328125,-1095.037353515625,-1156.796875,-1073.9676513671875,-668.3245849609375,-1305.358642578125,-1504.482421875
315980.45091448276,-658.80615234375,-1226.0885009765625,-1089.584228515625,-1151.27734375,-1069.2169189453125,-664.0724487304688,-1299.6331787109375,-1499.1866455078125
315980.4549144828,-655.1331176757812,-1222.9290771484375,-1086.3721923828125,-1148.055419921875,-1065.71826171875,-660.1775512695312,-1296.542236328125,-1496.026611328125
315980.4589144828,-659.6000366210938,-1228.73486328125,-1091.9278564453125,-1153.680419921875,-1070.2421875,-663.493896484375,-1302.643310546875,-1501.6776123046875
315980.4629144828,-664.5460815429688,-1233.4171142578125,-1096.6390380859375,-1158.443115234375,-1074.8779296875,-668.2800903320312,-1307.30712890625,-1506.1260986328125
315980.46691448276,-663.6043090820312,-1231.2484130859375,-1094.715087890625,-1156.4561767578125,-1073.7513427734375,-668.1411743164062,-1304.9420166015625,-1503.94677734375
315980.4709144828,-658.11572265625,-1224.8115234375,-1088.4791259765625,-1150.0987548828125,-1068.162841796875,-663.321533203125,-1298.42822265625,-1497.6593017578125
315980.4749144828,-654.4686279296875,-1221.483154296875,-1085.1627197265625,-1146.7225341796875,-1064.5142822265625,-659.3732299804688,-1295.230224609375,-1494.323486328125
315980.4789144828,-658.7546997070312,-1227.022216796875,-1090.4649658203125,-1152.09765625,-1068.790771484375,-662.5471801757812,-1300.961669921875,-1499.6512451171875
315980.48291448277,-664.5895385742188,-1233.1109619140625,-1096.4241943359375,-1158.160400390625,-1074.650634765625,-668.224609375,-1306.997802734375,-1505.721435546875
315980.4869144828,-664.2717895507812,-1231.977294921875,-1095.4305419921875,-1157.1761474609375,-1074.4293212890625,-668.71875,-1305.69091796875,-1504.78369140625
315980.4909144828,-658.5194091796875,-1225.3505859375,-1089.0316162109375,-1150.6907958984375,-1068.7108154296875,-663.707763671875,-1298.981201171875,-1498.3153076171875
315980.4949144828,-654.60205078125,-1221.57861328125,-1085.2835693359375,-1146.86083984375,-1064.674072265625,-659.5330810546875,-1295.2672119140625,-1494.364501953125
315980.49891448277,-658.7382202148438,-1226.8388671875,-1090.353515625,-1152.0242919921875,-1068.705322265625,-662.589111328125,-1300.7198486328125,-1499.3399658203125
315980.5029144828,-664.5031127929688,-1232.7911376953125,-1096.243896484375,-1158.034423828125,-1074.46728515625,-668.2001342773438,-1306.7095947265625,-1505.3096923828125
315980.5069144828,-663.7172241210938,-1231.123046875,-1094.7449951171875,-1156.5081787109375,-1073.68994140625,-668.2151489257812,-1304.9635009765625,-1503.8603515625
315980.5109144828,-658.3585205078125,-1224.928955078125,-1088.6993408203125,-1150.4095458984375,-1068.3641357421875,-663.5963134765625,-1298.637451171875,-1497.8057861328125
315980.5149144828,-654.8158569335938,-1221.677490234375,-1085.4014892578125,-1147.061279296875,-1064.8125,-659.7808837890625,-1295.41162109375,-1494.4334716796875
315980.5189144828,-659.4346923828125,-1227.516357421875,-1091.0020751953125,-1152.712646484375,-1069.40087890625,-663.3055419921875,-1301.44970703125,-1500.0164794921875
315980.5229144828,-664.3607177734375,-1232.6202392578125,-1095.99755859375,-1157.7880859375,-1074.283935546875,-668.0742797851562,-1306.47021484375,-1505.099853515625
315980.5269144828,-663.2725830078125,-1230.6324462890625,-1094.1470947265625,-1155.8232421875,-1073.1922607421875,-667.7470092773438,-1304.2855224609375,-1503.2513427734375
315980.5309144828,-658.3150634765625,-1224.866455078125,-1088.56201171875,-1150.103271484375,-1068.2607421875,-663.4369506835938,-1298.483642578125,-1497.67431640625
315980.5349144828,-654.8743286132812,-1221.8409423828125,-1085.48046875,-1146.9417724609375,-1064.8729248046875,-659.6939697265625,-1295.573486328125,-1494.6142578125
315980.5389144828,-658.78515625,-1227.1446533203125,-1090.5174560546875,-1152.033203125,-1068.8831787109375,-662.5836181640625,-1300.9805908203125,-1499.728759765625
