lsl_time,C3,C4,CZ,CP3,CP4,CPZ,FC3,FC4
315937.09091448085,-661.2327270507812,-1230.5289306640625,-1089.0631103515625,-1141.1844482421875,-1065.8760986328125,-666.8696899414062,-1284.6971435546875,-1491.1510009765625
315937.09491448087,-653.0267944335938,-1221.4852294921875,-1080.276123046875,-1132.2076416015625,-1057.9169921875,-659.3257446289062,-1275.637939453125,-1482.5040283203125
315937.0989144809,-647.9738159179688,-1217.493408203125,-1076.16796875,-1128.0159912109375,-1053.2337646484375,-653.76220703125,-1271.8939208984375,-1478.666015625
315937.10291448084,-656.3231811523438,-1228.2947998046875,-1086.3507080078125,-1138.441650390625,-1062.152587890625,-661.1088256835938,-1282.903564453125,-1489.50732421875
315937.10691448086,-665.7001342773438,-1238.6025390625,-1096.287353515625,-1148.5994873046875,-1072.07470703125,-670.562255859375,-1293.1864013671875,-1500.1439208984375
315937.1109144809,-664.7953491210938,-1236.676025390625,-1094.5787353515625,-1146.8634033203125,-1071.212890625,-670.3909301757812,-1291.111083984375,-1498.5616455078125
315937.1149144809,-656.2492065429688,-1226.9708251953125,-1085.220703125,-1137.278564453125,-1062.623779296875,-662.4312744140625,-1281.4322509765625,-1489.169677734375
315937.11891448084,-650.0046997070312,-1220.80322265625,-1079.196044921875,-1131.0625,-1056.0235595703125,-655.6221923828125,-1275.4560546875,-1482.751220703125
315937.12291448086,-656.4210815429688,-1227.881591796875,-1086.0899658203125,-1138.100830078125,-1061.741455078125,-661.00390625,-1282.5609130859375,-1489.061279296875
315937.1269144809,-664.5031127929688,-1235.6888427734375,-1093.80029296875,-1146.009521484375,-1069.5341796875,-669.204345703125,-1290.2152099609375,-1496.626220703125
315937.1309144809,-663.2760620117188,-1233.1993408203125,-1091.5516357421875,-1143.659423828125,-1068.1807861328125,-668.6992797851562,-1287.602294921875,-1494.324462890625
315937.13491448085,-654.4266967773438,-1223.08740234375,-1081.7904052734375,-1133.6634521484375,-1059.262939453125,-660.529296875,-1277.3560791015625,-1484.3604736328125
315937.13891448086,-648.2735595703125,-1217.258544921875,-1076.0130615234375,-1127.7476806640625,-1052.991943359375,-653.8995971679688,-1271.6611328125,-1478.307373046875
315937.1429144809,-655.7686157226562,-1226.395263671875,-1084.737060546875,-1136.7005615234375,-1060.491455078125,-660.3869018554688,-1280.95166015625,-1487.1142578125
315937.1469144809,-663.7962036132812,-1234.8260498046875,-1092.9315185546875,-1145.1187744140625,-1068.7322998046875,-668.5404052734375,-1289.24755859375,-1495.594970703125
315937.15091448085,-662.5626831054688,-1232.494873046875,-1090.82568359375,-1142.924560546875,-1067.505859375,-668.0597534179688,-1286.76953125,-1493.501708984375
315937.15491448087,-654.4771118164062,-1223.2127685546875,-1081.9068603515625,-1133.8062744140625,-1059.4033203125,-660.6072387695312,-1277.43896484375,-1484.4573974609375
315937.1589144809,-648.2326049804688,-1217.22216796875,-1076.0135498046875,-1127.8011474609375,-1052.9874267578125,-653.8361206054688,-1271.6181640625,-1478.2633056640625
315937.1629144809,-655.714111328125,-1226.2064208984375,-1084.609130859375,-1136.6146240234375,-1060.383544921875,-660.3214721679688,-1280.7442626953125,-1486.8385009765625
315937.16691448085,-664.7489013671875,-1235.4085693359375,-1093.617919921875,-1145.814208984375,-1069.415283203125,-669.399169921875,-1289.8890380859375,-1496.0072021484375
315937.17091448087,-662.931884765625,-1232.4989013671875,-1090.943115234375,-1142.9940185546875,-1067.605712890625,-668.3445434570312,-1286.8538818359375,-1493.328857421875
315937.1749144809,-654.4985961914062,-1222.8880615234375,-1081.6669921875,-1133.5159912109375,-1059.1710205078125,-660.55224609375,-1277.1746826171875,-1483.9512939453125
315937.1789144809,-648.666748046875,-1217.43994140625,-1076.2603759765625,-1128.00146484375,-1053.2657470703125,-654.2398071289062,-1271.8323974609375,-1478.3148193359375
315937.18291448086,-656.0103759765625,-1226.5211181640625,-1084.876953125,-1136.828857421875,-1060.6287841796875,-660.4693603515625,-1281.0211181640625,-1487.1072998046875
315937.1869144809,-665.0266723632812,-1235.8402099609375,-1093.9691162109375,-1146.12451171875,-1069.7265625,-669.5115966796875,-1290.294677734375,-1496.48876953125
315937.1909144809,-664.313232421875,-1233.871826171875,-1092.2850341796875,-1144.3134765625,-1068.9212646484375,-669.4976196289062,-1288.2872314453125,-1494.7491455078125
315937.1949144809,-655.3649291992188,-1223.7054443359375,-1082.475341796875,-1134.3214111328125,-1059.9473876953125,-661.2372436523438,-1277.9794921875,-1484.7991943359375
315937.19891448086,-649.3362426757812,-1218.0704345703125,-1076.891357421875,-1128.6414794921875,-1053.8363037109375,-654.7284545898438,-1272.468994140625,-1479.0257568359375
315937.2029144809,-656.4760131835938,-1226.9168701171875,-1085.33154296875,-1137.322509765625,-1061.0455322265625,-660.8525390625,-1281.500244140625,-1487.5924072265625
315937.2069144809,-665.970947265625,-1236.696533203125,-1094.889404296875,-1147.1346435546875,-1070.6463623046875,-670.4283447265625,-1291.2259521484375,-1497.4105224609375
315937.21091448085,-664.6524658203125,-1234.14404296875,-1092.5992431640625,-1144.7275390625,-1069.2484130859375,-669.8922729492188,-1288.549560546875,-1495.0804443359375
315937.21491448086,-655.1395874023438,-1223.2877197265625,-1082.1591796875,-1134.0396728515625,-1059.6241455078125,-661.0324096679688,-1277.7127685546875,-1484.48291015625
315937.2189144809,-649.4751586914062,-1217.935546875,-1076.872802734375,-1128.616943359375,-1053.8153076171875,-654.8473510742188,-1272.5633544921875,-1478.9627685546875
315937.2229144809,-656.8282470703125,-1226.8983154296875,-1085.4150390625,-1137.39599609375,-1061.1749267578125,-661.21826171875,-1281.62109375,-1487.552978515625
315937.22691448085,-666.09033203125,-1236.4132080078125,-1094.6890869140625,-1146.9708251953125,-1070.5614013671875,-670.690673828125,-1290.8802490234375,-1497.0023193359375
315937.23091448087,-665.4158935546875,-1234.8245849609375,-1093.2762451171875,-1145.4769287109375,-1070.05029296875,-670.8370361328125,-1289.1151123046875,-1495.68896484375
315937.2349144809,-656.3886108398438,-1224.8179931640625,-1083.5870361328125,-1135.5474853515625,-1061.135986328125,-662.3953247070312,-1279.1380615234375,-1486.0506591796875
315937.2389144809,-649.9982299804688,-1218.9742431640625,-1077.753662109375,-1129.6341552734375,-1054.7745361328125,-655.5437622070312,-1273.4385986328125,-1480.10791015625
315937.24291448086,-657.7235107421875,-1228.401123046875,-1086.7264404296875,-1138.822265625,-1062.5682373046875,-662.2879028320312,-1282.881591796875,-1489.1221923828125
315937.2469144809,-666.6378784179688,-1237.4599609375,-1095.619873046875,-1147.89404296875,-1071.484619140625,-671.2677001953125,-1291.857421875,-1498.12744140625
315937.2509144809,-664.959228515625,-1234.7205810546875,-1093.1153564453125,-1145.274169921875,-1069.8485107421875,-670.357421875,-1289.0626220703125,-1495.7083740234375
315937.2549144809,-655.6681518554688,-1224.240478515625,-1083.00146484375,-1134.930908203125,-1060.577392578125,-661.7738037109375,-1278.529541015625,-1485.486572265625
315937.25891448086,-649.4696044921875,-1218.4600830078125,-1077.2540283203125,-1129.1070556640625,-1054.2879638671875,-655.0606689453125,-1272.9180908203125,-1479.6097412109375
315937.2629144809,-656.478515625,-1227.37451171875,-1085.6239013671875,-1137.6712646484375,-1061.462158203125,-661.121826171875,-1281.8079833984375,-1488.2093505859375
315937.2669144809,-665.4743041992188,-1236.66552734375,-1094.681640625,-1146.890869140625,-1070.5313720703125,-670.1560668945312,-1290.9920654296875,-1497.5169677734375
315937.2709144809,-664.7034301757812,-1234.6331787109375,-1092.9415283203125,-1145.037841796875,-1069.6326904296875,-670.0951538085938,-1288.884765625,-1495.7174072265625
315937.27491448086,-655.153564453125,-1223.7703857421875,-1082.4783935546875,-1134.307373046875,-1059.9393310546875,-661.0848388671875,-1278.0909423828125,-1485.1343994140625
315937.2789144809,-649.2093505859375,-1218.246826171875,-1076.9832763671875,-1128.6988525390625,-1053.896728515625,-654.6395263671875,-1272.6727294921875,-1479.4783935546875
315937.2829144809,-656.660888671875,-1227.3929443359375,-1085.69384765625,-1137.6287841796875,-1061.3997802734375,-661.1133422851562,-1281.8819580078125,-1488.263916015625
315937.2869144809,-665.9044799804688,-1236.823486328125,-1094.9468994140625,-1147.03369140625,-1070.6668701171875,-670.4259033203125,-1291.2913818359375,-1497.6788330078125
315937.29091448087,-664.7084350585938,-1234.40283203125,-1092.8131103515625,-1144.8045654296875,-1069.404296875,-669.9717407226562,-1288.8153076171875,-1495.5101318359375
315937.2949144809,-655.5782470703125,-1224.069580078125,-1082.8546142578125,-1134.651611328125,-1060.26806640625,-661.435546875,-1278.49462890625,-1485.462646484375
315937.2989144809,-649.763427734375,-1218.699462890625,-1077.50634765625,-1129.2109375,-1054.42626953125,-655.1690673828125,-1273.2313232421875,-1479.9210205078125
315937.30291448085,-657.2694091796875,-1227.8560791015625,-1086.2283935546875,-1138.1778564453125,-1061.9527587890625,-661.7093505859375,-1282.4754638671875,-1488.718017578125
315937.30691448087,-667.0211181640625,-1237.8341064453125,-1096.0020751953125,-1148.203857421875,-1071.7574462890625,-671.5225219726562,-1292.37255859375,-1498.738037109375
315937.3109144809,-666.0713500976562,-1235.7158203125,-1094.1260986328125,-1146.2568359375,-1070.774169921875,-671.30419921875,-1290.146240234375,-1496.8504638671875
315937.3149144809,-656.3561401367188,-1224.715576171875,-1083.4935302734375,-1135.392578125,-1060.978515625,-662.222412109375,-1279.0811767578125,-1486.0291748046875
315937.31891448086,-650.076171875,-1218.8873291015625,-1077.7147216796875,-1129.543701171875,-1054.6651611328125,-655.4603271484375,-1273.4385986328125,-1480.10791015625
315937.3229144809,-657.8349609375,-1228.4366455078125,-1086.8128662109375,-1138.876220703125,-1062.583251953125,-662.29736328125,-1283.0699462890625,-1489.342529296875
315937.32691448083,-666.9826049804688,-1237.9061279296875,-1096.0445556640625,-1148.292236328125,-1071.8538818359375,-671.5390014648438,-1292.427978515625,-1498.823974609375
315937.33091448084,-665.7306518554688,-1235.6224365234375,-1093.961669921875,-1146.116455078125,-1070.6982421875,-671.1463012695312,-1289.9034423828125,-1496.76708984375
315937.33491448086,-656.1188354492188,-1224.736083984375,-1083.4410400390625,-1135.363525390625,-1060.9945068359375,-662.1914672851562,-1278.9083251953125,-1486.05859375
315937.3389144809,-649.5475463867188,-1218.4820556640625,-1077.2540283203125,-1129.0755615234375,-1054.2169189453125,-655.0471801757812,-1272.9090576171875,-1479.6597900390625
315937.34291448083,-656.7063598632812,-1227.233154296875,-1085.56689453125,-1137.658203125,-1061.331787109375,-661.1792602539062,-1281.822509765625,-1488.0440673828125
315937.34691448085,-666.0274047851562,-1236.76953125,-1094.91845703125,-1147.2435302734375,-1070.7462158203125,-670.6132202148438,-1291.255859375,-1497.578369140625
315937.35091448086,-665.0307006835938,-1234.6446533203125,-1093.035400390625,-1145.2286376953125,-1069.7406005859375,-670.3124389648438,-1289.0816650390625,-1495.744873046875
315937.3549144809,-655.9549560546875,-1224.4293212890625,-1083.1453857421875,-1135.079833984375,-1060.704833984375,-661.9061889648438,-1278.8233642578125,-1485.75634765625
315937.35891448084,-650.4793090820312,-1219.3719482421875,-1078.120849609375,-1129.9024658203125,-1055.169189453125,-656.0448608398438,-1273.763427734375,-1480.4581298828125
315937.36291448085,-659.6165161132812,-1230.275634765625,-1088.550537109375,-1140.5694580078125,-1064.3818359375,-664.2423095703125,-1284.6746826171875,-1490.982177734375
315937.36691448087,-670.4234008789062,-1241.4417724609375,-1099.4873046875,-1151.708984375,-1075.3270263671875,-675.1146240234375,-1295.80126953125,-1502.197265625
315937.3709144809,-669.4756469726562,-1239.3834228515625,-1097.687255859375,-1149.8150634765625,-1074.37939453125,-674.8658447265625,-1293.6849365234375,-1500.4271240234375
315937.37491448084,-659.2138671875,-1227.861572265625,-1086.568603515625,-1138.4691162109375,-1064.0865478515625,-665.2774658203125,-1282.1357421875,-1489.13671875
315937.37891448085,-651.9126586914062,-1220.920166015625,-1079.6871337890625,-1131.461669921875,-1056.698974609375,-657.5471801757812,-1275.314697265625,-1482.017822265625
315937.38291448087,-660.1400756835938,-1230.7628173828125,-1089.1085205078125,-1141.0870361328125,-1064.9154052734375,-664.7619018554688,-1285.338134765625,-1491.5018310546875
315937.3869144809,-670.6506958007812,-1241.739990234375,-1099.821044921875,-1152.066162109375,-1075.6318359375,-675.3009643554688,-1296.27685546875,-1502.5943603515625
315937.39091448084,-670.5912475585938,-1240.940673828125,-1099.14306640625,-1151.3487548828125,-1075.878662109375,-676.04638671875,-1295.2437744140625,-1502.1851806640625
315937.39491448086,-661.7133178710938,-1231.0216064453125,-1089.5467529296875,-1141.53759765625,-1067.1331787109375,-667.8439331054688,-1285.2657470703125,-1492.5623779296875
315937.3989144809,-655.078125,-1224.7900390625,-1083.4080810546875,-1135.2626953125,-1060.45751953125,-660.76611328125,-1279.2464599609375,-1486.1925048828125
315937.40291448083,-663.3400268554688,-1234.8350830078125,-1092.9654541015625,-1145.0997314453125,-1068.851318359375,-668.0562744140625,-1289.3154296875,-1495.917236328125
315937.40691448085,-673.514404296875,-1245.2056884765625,-1103.139892578125,-1155.4764404296875,-1079.0545654296875,-678.298095703125,-1299.6002197265625,-1506.2799072265625
315937.41091448086,-672.5931396484375,-1243.0709228515625,-1101.290283203125,-1153.5030517578125,-1078.0828857421875,-678.1406860351562,-1297.3795166015625,-1504.385986328125
315937.4149144809,-662.6336059570312,-1231.672119140625,-1090.3160400390625,-1142.2760009765625,-1067.925537109375,-668.7752075195312,-1285.97216796875,-1493.1744384765625
315937.41891448083,-656.1047973632812,-1225.50048828125,-1084.1910400390625,-1136.04248046875,-1061.2723388671875,-661.7512817382812,-1279.9249267578125,-1486.824462890625
315937.42291448085,-663.6143188476562,-1234.7716064453125,-1092.947509765625,-1145.0343017578125,-1068.86328125,-668.300048828125,-1289.2294921875,-1495.7498779296875
315937.4269144808,-672.2184448242188,-1243.571533203125,-1101.55810546875,-1153.7733154296875,-1077.548828125,-677.027099609375,-1297.923095703125,-1504.535400390625
315937.4309144808,-670.9689331054688,-1241.27783203125,-1099.522705078125,-1151.632080078125,-1076.3712158203125,-676.4830322265625,-1295.60693359375,-1502.5458984375
315937.43491448084,-662.42529296875,-1231.672119140625,-1090.22265625,-1142.16162109375,-1067.863037109375,-668.5328979492188,-1285.92919921875,-1493.1768798828125
315937.43891448085,-656.876708984375,-1226.68701171875,-1085.22412109375,-1137.0601806640625,-1062.3314208984375,-662.5081787109375,-1281.0665283203125,-1488.0760498046875
315937.4429144808,-664.7669067382812,-1236.306396484375,-1094.392333984375,-1146.47314453125,-1070.3660888671875,-669.4541625976562,-1290.77880859375,-1497.45947265625
315937.4469144808,-673.7542114257812,-1245.7218017578125,-1103.5784912109375,-1155.8616943359375,-1079.609619140625,-678.5274047851562,-1300.15625,-1507.00390625
315937.45091448084,-672.6436157226562,-1243.4910888671875,-1101.6151123046875,-1153.876708984375,-1078.4920654296875,-678.1661987304688,-1297.8466796875,-1505.0054931640625
315937.45491448086,-663.750732421875,-1233.2657470703125,-1091.7379150390625,-1143.7923583984375,-1069.3673095703125,-669.8578491210938,-1287.5828857421875,-1494.8541259765625
315937.4589144808,-658.1541748046875,-1227.7596435546875,-1086.3258056640625,-1138.173828125,-1063.3851318359375,-663.6687622070312,-1282.298095703125,-1489.042724609375
315937.4629144808,-665.4738159179688,-1236.478271484375,-1094.7196044921875,-1146.7354736328125,-1070.6243896484375,-670.024169921875,-1291.220458984375,-1497.49853515625
315937.46691448084,-673.4459838867188,-1244.6876220703125,-1102.7591552734375,-1154.9349365234375,-1078.747802734375,-678.1636962890625,-1299.2769775390625,-1505.8028564453125
315937.47091448086,-671.791259765625,-1242.0872802734375,-1100.33056640625,-1152.4359130859375,-1077.1475830078125,-677.2678833007812,-1296.4188232421875,-1503.4322509765625
315937.4749144808,-664.2747802734375,-1233.7928466796875,-1092.2335205078125,-1144.2529296875,-1069.7255859375,-670.2969970703125,-1288.0849609375,-1495.3507080078125
315937.47891448083,-660.0142211914062,-1230.229736328125,-1088.597412109375,-1140.5599365234375,-1065.5299072265625,-665.5572509765625,-1284.6512451171875,-1491.6856689453125
315937.48291448085,-666.3011474609375,-1237.9410400390625,-1095.985107421875,-1148.075439453125,-1071.8853759765625,-671.0068969726562,-1292.4234619140625,-1499.1651611328125
315937.48691448086,-671.8897094726562,-1243.4716796875,-1101.462158203125,-1153.659423828125,-1077.493896484375,-676.7448120117188,-1297.91552734375,-1504.7176513671875
315937.4909144808,-669.7389526367188,-1240.339111328125,-1098.5474853515625,-1150.683349609375,-1075.3980712890625,-675.3009643554688,-1294.7486572265625,-1501.7760009765625
315937.49491448083,-662.5536499023438,-1232.50244140625,-1090.8636474609375,-1142.8975830078125,-1068.313232421875,-668.600830078125,-1286.847900390625,-1494.1112060546875
315937.49891448085,-659.9317626953125,-1230.4000244140625,-1088.7283935546875,-1140.6678466796875,-1065.535888671875,-665.35595703125,-1284.8995361328125,-1491.845458984375
315937.50291448087,-667.307373046875,-1238.655029296875,-1096.8238525390625,-1148.8602294921875,-1072.6851806640625,-671.88720703125,-1293.226806640625,-1499.7601318359375
315937.5069144808,-672.0880737304688,-1243.1962890625,-1101.3792724609375,-1153.4896240234375,-1077.4144287109375,-676.7947998046875,-1297.7252197265625,-1504.3609619140625
315937.51091448084,-668.579345703125,-1238.722900390625,-1097.085693359375,-1149.1280517578125,-1073.8697509765625,-673.9085693359375,-1293.1568603515625,-1500.1134033203125
315937.51491448085,-660.0271606445312,-1229.1895751953125,-1087.744140625,-1139.66162109375,-1065.1142578125,-665.8740234375,-1283.4486083984375,-1490.530517578125
315937.51891448087,-657.2923583984375,-1226.8284912109375,-1085.353515625,-1137.234619140625,-1062.1781005859375,-662.6695556640625,-1281.1849365234375,-1487.878662109375
315937.5229144808,-663.8980712890625,-1234.327392578125,-1092.7142333984375,-1144.6866455078125,-1068.636474609375,-668.4649658203125,-1288.848876953125,-1495.097900390625
315937.52691448084,-668.6572875976562,-1238.7408447265625,-1097.1611328125,-1149.16455078125,-1073.28271484375,-673.3875122070312,-1293.1964111328125,-1499.4913330078125
315937.53091448086,-665.5802612304688,-1234.5452880859375,-1093.21533203125,-1145.1517333984375,-1070.0927734375,-671.0128784179688,-1288.8887939453125,-1495.40771484375
315937.5349144809,-658.6047973632812,-1226.83642578125,-1085.6343994140625,-1137.5089111328125,-1063.077880859375,-664.5291137695312,-1281.05859375,-1487.749755859375
315937.5389144808,-656.8407592773438,-1225.6578369140625,-1084.373291015625,-1136.1883544921875,-1061.225830078125,-662.25244140625,-1279.9034423828125,-1486.368408203125
315937.54291448084,-664.7783813476562,-1234.59716796875,-1093.1337890625,-1144.98291015625,-1069.069580078125,-669.3587036132812,-1288.9482421875,-1495.0589599609375
315937.54691448086,-671.013916015625,-1240.598876953125,-1099.1910400390625,-1151.0579833984375,-1075.277587890625,-675.7401123046875,-1294.9609375,-1501.1251220703125
315937.5509144808,-669.10791015625,-1237.74267578125,-1096.5435791015625,-1148.3636474609375,-1073.379638671875,-674.4761352539062,-1292.064208984375,-1498.490234375
315937.55491448083,-662.87744140625,-1230.99365234375,-1089.8829345703125,-1141.6075439453125,-1067.24560546875,-668.6847534179688,-1285.253662109375,-1491.9368896484375
315937.55891448085,-660.7636108398438,-1229.5762939453125,-1088.355224609375,-1140.0423583984375,-1065.13623046875,-666.0768432617188,-1283.8992919921875,-1490.4161376953125
315937.56291448086,-667.4957275390625,-1237.24658203125,-1095.857177734375,-1147.58984375,-1071.7569580078125,-672.0445556640625,-1291.640625,-1497.82568359375
315937.5669144808,-672.351806640625,-1241.8978271484375,-1100.5159912109375,-1152.2525634765625,-1076.634033203125,-677.1329956054688,-1296.221923828125,-1502.4754638671875
315937.57091448084,-669.074462890625,-1237.6932373046875,-1096.4581298828125,-1148.1278076171875,-1073.357666015625,-674.549072265625,-1291.866455078125,-1498.4117431640625
315937.5749144808,-660.8265380859375,-1228.6944580078125,-1087.5858154296875,-1139.1895751953125,-1064.98291015625,-666.682861328125,-1282.6932373046875,-1489.473876953125
315937.5789144808,-658.1646728515625,-1226.6385498046875,-1085.4324951171875,-1137.0322265625,-1062.2730712890625,-663.4833984375,-1280.7542724609375,-1487.276123046875
315937.5829144808,-665.2964477539062,-1234.950439453125,-1093.530517578125,-1145.2001953125,-1069.501708984375,-669.8803100585938,-1289.2745361328125,-1495.4605712890625
315937.58691448084,-671.186279296875,-1240.8077392578125,-1099.3753662109375,-1151.08154296875,-1075.5284423828125,-675.949951171875,-1295.124267578125,-1501.4373779296875
315937.5909144808,-669.7504272460938,-1238.4486083984375,-1097.2060546875,-1148.8427734375,-1074.133056640625,-675.1880493164062,-1292.686767578125,-1499.258056640625
315937.5949144808,-663.8975830078125,-1231.9273681640625,-1090.8271484375,-1142.3974609375,-1068.28271484375,-669.81884765625,-1286.08251953125,-1492.814208984375
315937.5989144808,-661.705322265625,-1230.2786865234375,-1089.12451171875,-1140.7213134765625,-1066.0030517578125,-667.1320190429688,-1284.54931640625,-1490.99267578125
315937.60291448084,-668.8886108398438,-1238.453125,-1097.1336669921875,-1148.8248291015625,-1073.17626953125,-673.5868530273438,-1292.8896484375,-1498.9508056640625
315937.6069144808,-674.1469116210938,-1243.3951416015625,-1102.1121826171875,-1153.8917236328125,-1078.3006591796875,-678.9151000976562,-1297.9111328125,-1503.9503173828125
315937.6109144808,-671.099365234375,-1239.42138671875,-1098.32275390625,-1150.0882568359375,-1075.201171875,-676.4720458984375,-1293.808349609375,-1500.1683349609375
315937.61491448083,-664.1224365234375,-1231.932373046875,-1090.898681640625,-1142.6282958984375,-1068.358642578125,-670.0431518554688,-1286.1634521484375,-1492.7747802734375
315937.61891448084,-661.6138916015625,-1229.993896484375,-1088.88720703125,-1140.574951171875,-1065.73876953125,-667.01611328125,-1284.3729248046875,-1490.6649169921875
315937.62291448086,-668.3575439453125,-1237.644287109375,-1096.3568115234375,-1148.1883544921875,-1072.368896484375,-673.0053100585938,-1292.134765625,-1498.0455322265625
315937.6269144808,-672.9468383789062,-1242.0228271484375,-1100.75830078125,-1152.687744140625,-1076.9598388671875,-677.7730102539062,-1296.4073486328125,-1502.4415283203125
315937.63091448083,-669.1519165039062,-1237.31005859375,-1096.2193603515625,-1148.1463623046875,-1073.1368408203125,-674.5785522460938,-1291.59814453125,-1497.9141845703125
315937.63491448085,-661.9876098632812,-1229.500244140625,-1088.5465087890625,-1140.4649658203125,-1065.9844970703125,-667.8798828125,-1283.763916015625,-1490.2313232421875
315937.63891448086,-660.0156860351562,-1228.1048583984375,-1087.11767578125,-1139.0531005859375,-1063.9801025390625,-665.410888671875,-1282.534423828125,-1488.72802734375
315937.6429144808,-666.747802734375,-1235.9061279296875,-1094.7220458984375,-1146.7359619140625,-1070.69580078125,-671.3201293945312,-1290.5489501953125,-1496.412841796875
315937.64691448084,-671.0443725585938,-1239.9544677734375,-1098.7857666015625,-1150.813232421875,-1074.9208984375,-675.6991577148438,-1294.6002197265625,-1500.5035400390625
315937.65091448085,-667.178466796875,-1235.1932373046875,-1094.18798828125,-1146.160888671875,-1071.074462890625,-672.459228515625,-1289.7281494140625,-1495.9136962890625
315937.65491448087,-659.785400390625,-1227.2105712890625,-1086.322265625,-1138.240234375,-1063.736328125,-665.5272827148438,-1281.6650390625,-1488.027587890625
315937.6589144808,-657.6450805664062,-1225.6728515625,-1084.70361328125,-1136.6270751953125,-1061.506591796875,-662.8768920898438,-1280.19677734375,-1486.323974609375
315937.66291448084,-664.1519165039062,-1233.203369140625,-1092.043701171875,-1144.067138671875,-1068.0074462890625,-668.6263427734375,-1287.7886962890625,-1493.633544921875
315937.66691448085,-669.1163940429688,-1238.1339111328125,-1096.9488525390625,-1148.9716796875,-1073.118896484375,-673.8081665039062,-1292.641845703125,-1498.64501953125
315937.67091448087,-665.7965698242188,-1234.068603515625,-1093.012939453125,-1144.929443359375,-1069.889892578125,-671.0593872070312,-1288.505126953125,-1494.818115234375
315937.6749144808,-658.8546142578125,-1226.556640625,-1085.5748291015625,-1137.462890625,-1062.968505859375,-664.5650634765625,-1280.897216796875,-1487.427490234375
315937.67891448084,-656.9601440429688,-1225.2772216796875,-1084.18994140625,-1136.08251953125,-1061.0460205078125,-662.2059326171875,-1279.667236328125,-1485.9671630859375
315937.68291448086,-664.2957763671875,-1233.637451171875,-1092.40087890625,-1144.3768310546875,-1068.369140625,-668.7821655273438,-1288.2083740234375,-1494.190673828125
315937.6869144809,-669.808837890625,-1239.087158203125,-1097.8541259765625,-1149.864990234375,-1073.9866943359375,-674.4861450195312,-1293.60498046875,-1499.7601318359375
315937.69091448083,-667.0031127929688,-1235.478515625,-1094.3978271484375,-1146.4222412109375,-1071.2802734375,-672.3593139648438,-1289.9114990234375,-1496.3958740234375
315937.69491448085,-659.6334838867188,-1227.5068359375,-1086.5341796875,-1138.56201171875,-1063.9151611328125,-665.3713989257812,-1281.974365234375,-1488.6165771484375
315937.69891448086,-657.6765747070312,-1226.2529296875,-1085.1932373046875,-1137.2060546875,-1062.0142822265625,-662.9563598632812,-1280.8153076171875,-1487.2572021484375
315937.7029144808,-665.2860107421875,-1235.0643310546875,-1093.7548828125,-1145.8531494140625,-1069.736572265625,-669.8163452148438,-1289.74658203125,-1495.9417724609375
315937.70691448083,-670.2565307617188,-1240.06884765625,-1098.702392578125,-1150.879638671875,-1074.8270263671875,-674.88232421875,-1294.80810546875,-1501.1470947265625
315937.71091448085,-667.3148803710938,-1236.4442138671875,-1095.1607666015625,-1147.29052734375,-1072.0302734375,-672.6026611328125,-1291.06103515625,-1497.750732421875
315937.71491448086,-659.5680541992188,-1227.9720458984375,-1086.785400390625,-1138.8468017578125,-1064.2493896484375,-665.3848876953125,-1282.39599609375,-1489.2396240234375
315937.7189144808,-656.7518310546875,-1225.620849609375,-1084.3853759765625,-1136.415771484375,-1061.2952880859375,-662.0905151367188,-1280.1383056640625,-1486.6241455078125
315937.72291448084,-663.4049682617188,-1233.30419921875,-1091.90087890625,-1144.023193359375,-1067.9329833984375,-667.954345703125,-1287.9381103515625,-1494.1126708984375
315937.7269144808,-668.2810668945312,-1238.0634765625,-1096.6669921875,-1148.7943115234375,-1072.8765869140625,-673.0372924804688,-1292.6683349609375,-1498.9423828125
315937.7309144808,-664.8568115234375,-1233.7613525390625,-1092.54833984375,-1144.5882568359375,-1069.509765625,-670.2744750976562,-1288.29931640625,-1494.8291015625
315937.7349144808,-657.62109375,-1225.7998046875,-1084.7305908203125,-1136.7275390625,-1062.22802734375,-663.5029296875,-1280.229736328125,-1486.9344482421875
315937.73891448084,-654.979736328125,-1223.60498046875,-1082.494873046875,-1134.443359375,-1059.4322509765625,-660.4163818359375,-1278.0460205078125,-1484.4783935546875
315937.7429144808,-661.7932739257812,-1231.27392578125,-1090.00634765625,-1142.0072021484375,-1066.06201171875,-666.4375610351562,-1285.8302001953125,-1491.89599609375
315937.7469144808,-666.7113647460938,-1236.0225830078125,-1094.7425537109375,-1146.7344970703125,-1070.9730224609375,-671.5225219726562,-1290.4495849609375,-1496.647216796875
315937.7509144808,-663.4309692382812,-1231.9403076171875,-1090.794677734375,-1142.754150390625,-1067.799072265625,-668.91357421875,-1286.2119140625,-1492.7373046875
315937.75491448084,-656.250732421875,-1224.347900390625,-1083.2677001953125,-1135.22216796875,-1060.8011474609375,-662.2289428710938,-1278.5311279296875,-1485.3292236328125
315937.7589144808,-654.6709594726562,-1223.6070556640625,-1082.3739013671875,-1134.3763427734375,-1059.3209228515625,-660.0951538085938,-1277.9615478515625,-1484.5943603515625
315937.7629144808,-662.4337768554688,-1232.6951904296875,-1091.182861328125,-1143.311279296875,-1067.24951171875,-667.0525512695312,-1287.2451171875,-1493.6141357421875
315937.76691448083,-667.5941162109375,-1237.7171630859375,-1096.1993408203125,-1148.419677734375,-1072.4168701171875,-672.3153686523438,-1292.28662109375,-1498.7344970703125
315937.77091448085,-664.3942260742188,-1233.68798828125,-1092.3204345703125,-1144.4532470703125,-1069.2509765625,-669.7593994140625,-1288.1759033203125,-1494.9200439453125
315937.7749144808,-656.7708129882812,-1225.404541015625,-1084.1485595703125,-1136.222412109375,-1061.614501953125,-662.6136474609375,-1279.83251953125,-1486.7630615234375
315937.7789144808,-654.4011840820312,-1223.549072265625,-1082.2230224609375,-1134.262939453125,-1059.0985107421875,-659.7169189453125,-1278.0634765625,-1484.6956787109375
315937.78291448083,-662.3008422851562,-1232.5013427734375,-1090.9815673828125,-1143.075439453125,-1066.9173583984375,-666.7777709960938,-1287.1851806640625,-1493.4776611328125
315937.78691448085,-667.92138671875,-1238.0360107421875,-1096.494140625,-1148.6064453125,-1072.59326171875,-672.5621948242188,-1292.6607666015625,-1499.1171875
315937.7909144808,-664.8988037109375,-1234.0316162109375,-1092.6966552734375,-1144.7401123046875,-1069.584716796875,-670.2510375976562,-1288.5306396484375,-1495.2623291015625
315937.7949144808,-657.2628784179688,-1225.6234130859375,-1084.4912109375,-1136.4752197265625,-1061.9517822265625,-663.125732421875,-1280.06591796875,-1486.9005126953125
315937.79891448084,-654.6929321289062,-1223.635009765625,-1082.4454345703125,-1134.4483642578125,-1059.349853515625,-660.110107421875,-1278.1348876953125,-1484.7271728515625
315937.80291448085,-662.7659912109375,-1232.6956787109375,-1091.3358154296875,-1143.4046630859375,-1067.301513671875,-667.3743286132812,-1287.35400390625,-1493.5635986328125
315937.8069144808,-669.377197265625,-1239.12109375,-1097.8011474609375,-1149.8984375,-1073.8997802734375,-674.08642578125,-1293.79736328125,-1500.0579833984375
315937.8109144808,-666.92919921875,-1235.9786376953125,-1094.81005859375,-1146.848388671875,-1071.6734619140625,-672.3633422851562,-1290.5924072265625,-1497.1822509765625
315937.8149144808,-659.785888671875,-1228.4755859375,-1087.3524169921875,-1139.40087890625,-1064.83544921875,-665.8255615234375,-1282.883056640625,-1489.859130859375
315937.8189144808,-656.9286499023438,-1226.2548828125,-1085.00732421875,-1137.03173828125,-1061.8887939453125,-662.3848266601562,-1280.73681640625,-1487.521484375
315937.8229144808,-665.0291748046875,-1235.455078125,-1093.9781494140625,-1146.0865478515625,-1069.9149169921875,-669.5775756835938,-1290.123779296875,-1496.5677490234375
315937.82691448083,-671.2661743164062,-1241.6220703125,-1100.09033203125,-1152.2196044921875,-1076.1673583984375,-675.8600463867188,-1296.318359375,-1502.793701171875
315937.8309144808,-668.3031005859375,-1237.89453125,-1096.4752197265625,-1148.5140380859375,-1073.355712890625,-673.601806640625,-1292.484375,-1499.279052734375
315937.8349144808,-660.497802734375,-1229.4403076171875,-1088.1387939453125,-1140.1617431640625,-1065.5723876953125,-666.3231811523438,-1283.8968505859375,-1490.958251953125
315937.8389144808,-657.6845703125,-1226.94677734375,-1085.6353759765625,-1137.6842041015625,-1062.518798828125,-663.0302734375,-1281.4197998046875,-1488.1669921875
315937.84291448083,-665.4493408203125,-1235.65283203125,-1094.1405029296875,-1146.27685546875,-1070.146728515625,-669.9912109375,-1290.1907958984375,-1496.5587158203125
315937.8469144808,-671.6513671875,-1241.79345703125,-1100.255615234375,-1152.431396484375,-1076.4346923828125,-676.392578125,-1296.25537109375,-1502.7447509765625
315937.8509144808,-668.09326171875,-1237.2830810546875,-1095.943115234375,-1148.0264892578125,-1072.935546875,-673.6083374023438,-1291.6005859375,-1498.3902587890625
315937.8549144808,-660.519287109375,-1229.0855712890625,-1087.8680419921875,-1139.91943359375,-1065.4525146484375,-666.5904541015625,-1283.2783203125,-1490.3466796875
315937.85891448084,-658.147216796875,-1227.2840576171875,-1085.987060546875,-1137.978515625,-1062.9609375,-663.6348266601562,-1281.653564453125,-1488.4202880859375
315937.8629144808,-666.9826049804688,-1237.1026611328125,-1095.6248779296875,-1147.687744140625,-1071.5975341796875,-671.5184936523438,-1291.7015380859375,-1498.0849609375
315937.8669144808,-673.5433959960938,-1243.36376953125,-1101.9107666015625,-1153.9356689453125,-1078.0064697265625,-678.1666870117188,-1297.9580078125,-1504.363037109375
315937.8709144808,-670.2785034179688,-1238.957275390625,-1097.751708984375,-1149.6376953125,-1074.588134765625,-675.561767578125,-1293.47509765625,-1500.052978515625
315937.8749144808,-662.2099609375,-1230.1832275390625,-1089.12060546875,-1140.9136962890625,-1066.546630859375,-668.0267944335938,-1284.5806884765625,-1491.3519287109375
315937.8789144808,-659.6634521484375,-1228.13134765625,-1087.021728515625,-1138.7493896484375,-1063.8702392578125,-664.9517822265625,-1282.6473388671875,-1489.0997314453125
315937.8829144808,-667.57666015625,-1236.94482421875,-1095.6778564453125,-1147.43994140625,-1071.53759765625,-671.9386596679688,-1291.64306640625,-1497.618896484375
315937.8869144808,-673.5713500976562,-1242.7042236328125,-1101.461669921875,-1153.2242431640625,-1077.4189453125,-677.9953002929688,-1297.50390625,-1503.4656982421875
315937.8909144808,-671.1497802734375,-1239.2974853515625,-1098.259765625,-1150.02978515625,-1074.9833984375,-676.230712890625,-1294.046142578125,-1500.312255859375
315937.8949144808,-663.67529296875,-1231.3458251953125,-1090.4124755859375,-1142.1422119140625,-1067.72412109375,-669.3167724609375,-1286.0245361328125,-1492.5794677734375
315937.8989144808,-661.3316650390625,-1229.7276611328125,-1088.700439453125,-1140.428466796875,-1065.4010009765625,-666.412109375,-1284.6336669921875,-1490.919189453125
315937.90291448083,-670.1226196289062,-1239.9853515625,-1098.6434326171875,-1150.425048828125,-1074.391357421875,-674.322265625,-1295.13134765625,-1501.1590576171875
315937.9069144808,-676.9581298828125,-1247.0142822265625,-1105.54296875,-1157.386474609375,-1081.49365234375,-681.3611450195312,-1302.0897216796875,-1508.32177734375
315937.9109144808,-673.7487182617188,-1242.750732421875,-1101.480224609375,-1153.2996826171875,-1078.28466796875,-678.9100952148438,-1297.666259765625,-1504.147216796875
315937.9149144808,-665.0836181640625,-1233.3521728515625,-1092.2490234375,-1144.0330810546875,-1069.685546875,-670.8370361328125,-1288.126953125,-1494.839599609375
315937.91891448083,-661.7193603515625,-1230.5469970703125,-1089.3768310546875,-1141.1983642578125,-1066.21435546875,-666.918701171875,-1285.5264892578125,-1491.91748046875
315937.92291448085,-669.6180419921875,-1239.3184814453125,-1097.97900390625,-1149.9014892578125,-1073.84033203125,-673.8341674804688,-1294.55322265625,-1500.45263671875
315937.9269144808,-675.8375244140625,-1245.228759765625,-1103.9267578125,-1155.8936767578125,-1079.9019775390625,-680.1106567382812,-1300.4486083984375,-1506.368896484375
315937.9309144808,-672.4867553710938,-1240.9810791015625,-1099.866455078125,-1151.70849609375,-1076.60107421875,-677.4497680664062,-1296.1490478515625,-1502.3450927734375
315937.93491448084,-663.8980712890625,-1231.73095703125,-1090.727294921875,-1142.4918212890625,-1068.0933837890625,-669.4601440429688,-1286.771484375,-1493.180908203125
315937.93891448085,-660.5762329101562,-1228.935791015625,-1087.8480224609375,-1139.5592041015625,-1064.629150390625,-665.5797729492188,-1284.14111328125,-1490.2203369140625
315937.9429144808,-668.9635620117188,-1238.2528076171875,-1096.96728515625,-1148.787841796875,-1072.76416015625,-673.0098266601562,-1293.6290283203125,-1499.256591796875
315937.9469144808,-675.9039916992188,-1244.9979248046875,-1103.7083740234375,-1155.5689697265625,-1079.6251220703125,-680.0291748046875,-1300.3226318359375,-1506.022705078125
315937.95091448084,-672.5167236328125,-1240.7987060546875,-1099.670166015625,-1151.47265625,-1076.3253173828125,-677.2938842773438,-1296.091552734375,-1502.1158447265625
315937.95491448086,-664.505615234375,-1232.3175048828125,-1091.279296875,-1142.9830322265625,-1068.4949951171875,-669.828369140625,-1287.50537109375,-1493.8624267578125
315937.9589144808,-662.3323364257812,-1230.8736572265625,-1089.7275390625,-1141.42626953125,-1066.3458251953125,-667.1220092773438,-1286.1619873046875,-1492.3355712890625
315937.9629144808,-670.5498046875,-1240.1767578125,-1098.8048095703125,-1150.6168212890625,-1074.4603271484375,-674.40771484375,-1295.6534423828125,-1501.4248046875
315937.96691448084,-676.6359252929688,-1246.1529541015625,-1104.737060546875,-1156.568603515625,-1080.531982421875,-680.57177734375,-1301.608154296875,-1507.4794921875
315937.97091448086,-672.5986328125,-1241.133544921875,-1099.887451171875,-1151.610107421875,-1076.47314453125,-677.2059326171875,-1296.42529296875,-1502.65087890625
315937.9749144808,-664.1453857421875,-1232.018310546875,-1090.9091796875,-1142.50537109375,-1068.10791015625,-669.3212280273438,-1287.191162109375,-1493.66357421875
315937.97891448083,-661.1692504882812,-1229.6776123046875,-1088.5350341796875,-1140.13427734375,-1065.127685546875,-665.8455200195312,-1285.0284423828125,-1491.2244873046875
315937.98291448085,-669.2133178710938,-1238.745361328125,-1097.4368896484375,-1149.131591796875,-1073.0224609375,-672.952880859375,-1294.322998046875,-1500.08740234375
315937.98691448086,-675.6866455078125,-1245.0703125,-1103.7293701171875,-1155.4764404296875,-1079.458740234375,-679.5126342773438,-1300.6229248046875,-1506.4183349609375
315937.9909144808,-672.5431518554688,-1241.157958984375,-1099.9464111328125,-1151.673583984375,-1076.4951171875,-677.0730590820312,-1296.630126953125,-1502.7652587890625
315937.99491448083,-664.1194458007812,-1232.2315673828125,-1091.093505859375,-1142.777587890625,-1068.316650390625,-669.356201171875,-1287.4669189453125,-1493.9583740234375
315937.99891448085,-661.1198120117188,-1229.778564453125,-1088.614990234375,-1140.2906494140625,-1065.2391357421875,-665.8795166015625,-1285.1727294921875,-1491.302978515625
315938.0029144808,-669.6934814453125,-1239.435302734375,-1098.0823974609375,-1149.884521484375,-1073.69189453125,-673.5159301757812,-1295.0108642578125,-1500.7843017578125
315938.0069144808,-676.3246459960938,-1246.0555419921875,-1104.6651611328125,-1156.55810546875,-1080.4085693359375,-680.2869873046875,-1301.55517578125,-1507.5074462890625
315938.01091448084,-672.695068359375,-1241.569091796875,-1100.3326416015625,-1152.1436767578125,-1076.868896484375,-677.404296875,-1296.9383544921875,-1503.2088623046875
315938.01491448085,-663.9385375976562,-1232.2840576171875,-1091.1329345703125,-1142.892578125,-1068.2841796875,-669.2503051757812,-1287.493896484375,-1494.0811767578125
315938.0189144808,-661.080322265625,-1230.208251953125,-1088.9351806640625,-1140.71875,-1065.4874267578125,-665.8889770507812,-1285.530517578125,-1491.927978515625
315938.0229144808,-670.2200317382812,-1240.5164794921875,-1099.0341796875,-1150.95263671875,-1074.609130859375,-674.1339111328125,-1295.9881591796875,-1502.0533447265625
315938.0269144808,-677.3418579101562,-1247.343994140625,-1105.8951416015625,-1157.8226318359375,-1081.6510009765625,-681.446044921875,-1302.7177734375,-1508.823974609375
315938.0309144808,-675.453857421875,-1244.3829345703125,-1103.1748046875,-1155.0208740234375,-1079.72607421875,-680.3174438476562,-1299.5863037109375,-1505.97216796875
315938.0349144808,-668.33154296875,-1236.6790771484375,-1095.597412109375,-1147.4229736328125,-1072.72216796875,-673.6687622070312,-1291.7979736328125,-1498.4542236328125
315938.0389144808,-665.7186279296875,-1234.6885986328125,-1093.541015625,-1145.3565673828125,-1070.080810546875,-670.5263061523438,-1289.8919677734375,-1496.326416015625
315938.0429144808,-673.1411743164062,-1243.04296875,-1101.7349853515625,-1153.6448974609375,-1077.260009765625,-677.0115966796875,-1298.4227294921875,-1504.4234619140625
315938.0469144808,-679.5335693359375,-1249.4178466796875,-1108.098388671875,-1160.0313720703125,-1083.7288818359375,-683.5429077148438,-1304.798583984375,-1510.9012451171875
315938.0509144808,-677.6495971679688,-1246.6375732421875,-1105.5069580078125,-1157.3504638671875,-1081.936279296875,-682.3418579101562,-1301.943359375,-1508.3343505859375
315938.05491448083,-669.161865234375,-1237.3350830078125,-1096.3353271484375,-1148.1148681640625,-1073.40966796875,-674.4176635742188,-1292.4324951171875,-1499.086669921875
315938.05891448085,-665.2940063476562,-1233.9847412109375,-1092.8980712890625,-1144.6376953125,-1069.4293212890625,-670.0821533203125,-1289.0740966796875,-1495.5101318359375
315938.0629144808,-672.9603271484375,-1242.5958251953125,-1101.3372802734375,-1153.1683349609375,-1076.8743896484375,-676.8382568359375,-1297.8201904296875,-1503.8553466796875
315938.0669144808,-679.0454711914062,-1248.4996337890625,-1107.24755859375,-1159.1435546875,-1082.9449462890625,-683.0317993164062,-1303.6884765625,-1509.7557373046875
315938.07091448084,-676.0173950195312,-1244.57177734375,-1103.5035400390625,-1155.359619140625,-1080.00634765625,-680.691162109375,-1299.7091064453125,-1506.044677734375
315938.0749144808,-668.697265625,-1236.7325439453125,-1095.752197265625,-1147.61474609375,-1072.892578125,-673.9195556640625,-1291.8079833984375,-1498.418212890625
315938.0789144808,-666.2427368164062,-1234.9674072265625,-1093.8677978515625,-1145.751708984375,-1070.4669189453125,-670.982421875,-1290.1392822265625,-1496.4803466796875
315938.0829144808,-673.579833984375,-1243.1763916015625,-1101.9498291015625,-1153.8712158203125,-1077.540283203125,-677.4287719726562,-1298.508056640625,-1504.3800048828125
315938.08691448084,-679.2353515625,-1248.68994140625,-1107.4598388671875,-1159.404296875,-1083.1998291015625,-683.2626342773438,-1303.8883056640625,-1509.903076171875
315938.0909144808,-676.4405517578125,-1245.2471923828125,-1104.110107421875,-1155.9775390625,-1080.7132568359375,-681.2911987304688,-1300.1917724609375,-1506.6611328125
315938.0949144808,-669.7269287109375,-1238.107421875,-1097.0262451171875,-1148.8138427734375,-1074.29638671875,-675.2295532226562,-1292.8916015625,-1499.664306640625
315938.0989144808,-667.7689819335938,-1236.8504638671875,-1095.6778564453125,-1147.494873046875,-1072.3349609375,-672.7400512695312,-1291.7879638671875,-1498.3353271484375
315938.10291448084,-675.6657104492188,-1246.092529296875,-1104.674560546875,-1156.62060546875,-1080.2686767578125,-679.6694946289062,-1301.2479248046875,-1507.5050048828125
315938.1069144808,-682.155517578125,-1253.0184326171875,-1111.4482421875,-1163.444091796875,-1087.151611328125,-686.3341674804688,-1308.158447265625,-1514.712158203125
315938.1109144808,-678.6497802734375,-1248.850830078125,-1107.3994140625,-1159.3509521484375,-1083.97412109375,-683.6767578125,-1303.77392578125,-1510.8128662109375
315938.11491448083,-669.893798828125,-1239.497314453125,-1098.1497802734375,-1150.02587890625,-1075.3690185546875,-675.5213012695312,-1294.216552734375,-1501.55029296875
315938.11891448084,-666.58642578125,-1236.7445068359375,-1095.317138671875,-1147.162109375,-1071.958740234375,-671.69287109375,-1291.53515625,-1498.5606689453125
315938.12291448086,-674.269287109375,-1245.0948486328125,-1103.5770263671875,-1155.4429931640625,-1079.16796875,-678.3405151367188,-1300.144775390625,-1506.5882568359375
315938.1269144808,-680.5907592773438,-1250.91064453125,-1109.4522705078125,-1161.34423828125,-1085.212158203125,-684.7908935546875,-1305.897705078125,-1512.26318359375
315938.13091448083,-676.9107055664062,-1246.3648681640625,-1105.0572509765625,-1156.846923828125,-1081.678466796875,-681.9132080078125,-1301.177490234375,-1507.876220703125
315938.13491448085,-667.6046142578125,-1236.3658447265625,-1095.2281494140625,-1146.9083251953125,-1072.4888916015625,-673.2081298828125,-1291.1044921875,-1498.0115966796875
315938.13891448086,-664.0075073242188,-1233.1678466796875,-1092.0062255859375,-1143.6949462890625,-1068.7059326171875,-669.095458984375,-1287.9720458984375,-1494.5927734375
315938.1429144808,-671.2661743164062,-1241.3642578125,-1100.0263671875,-1151.7913818359375,-1075.7626953125,-675.4603271484375,-1296.234375,-1502.501953125
315938.14691448084,-676.9296875,-1246.9283447265625,-1105.5938720703125,-1157.3489990234375,-1081.4466552734375,-681.2357177734375,-1301.8564453125,-1508.156494140625
315938.15091448085,-673.1522216796875,-1242.2625732421875,-1101.08447265625,-1152.78515625,-1077.7581787109375,-678.1511840820312,-1297.1181640625,-1503.7005615234375
315938.15491448087,-665.2335205078125,-1233.99365234375,-1092.8665771484375,-1144.5177001953125,-1070.170166015625,-670.8005981445312,-1288.77783203125,-1495.6744384765625
315938.1589144808,-662.4662475585938,-1232.3074951171875,-1090.9805908203125,-1142.6497802734375,-1067.6927490234375,-667.5611572265625,-1287.1826171875,-1494.0357666015625
315938.16291448084,-670.1985473632812,-1241.4442138671875,-1099.8349609375,-1151.610107421875,-1075.5308837890625,-674.3687133789062,-1296.47119140625,-1503.095947265625
315938.16691448085,-675.690673828125,-1246.9688720703125,-1105.2940673828125,-1157.1016845703125,-1081.135986328125,-679.980712890625,-1301.94580078125,-1508.7265625
315938.17091448087,-672.2568969726562,-1242.6982421875,-1101.1729736328125,-1152.8770751953125,-1077.8365478515625,-677.3243408203125,-1297.5413818359375,-1504.6168212890625
315938.1749144808,-663.11474609375,-1232.63427734375,-1091.3162841796875,-1142.9639892578125,-1068.56396484375,-668.7232666015625,-1287.4189453125,-1494.6318359375
315938.17891448084,-659.5905151367188,-1229.584716796875,-1088.229736328125,-1139.9224853515625,-1064.864501953125,-664.634521484375,-1284.5548095703125,-1491.4393310546875
315938.18291448086,-666.6998291015625,-1237.7137451171875,-1096.1729736328125,-1147.971435546875,-1071.8428955078125,-670.8365478515625,-1292.8341064453125,-1499.3095703125
315938.1869144809,-672.2304077148438,-1242.9405517578125,-1101.4072265625,-1153.2662353515625,-1077.2615966796875,-676.5130004882812,-1298.00048828125,-1504.4898681640625
315938.19091448083,-668.3815307617188,-1237.794189453125,-1096.568603515625,-1148.381103515625,-1073.1998291015625,-673.343017578125,-1292.8011474609375,-1499.4569091796875
315938.19491448085,-659.571044921875,-1228.1019287109375,-1087.0721435546875,-1138.854736328125,-1064.3309326171875,-665.1076049804688,-1283.012451171875,-1489.8011474609375
315938.19891448086,-656.5554809570312,-1225.7652587890625,-1084.5941162109375,-1136.3792724609375,-1061.3033447265625,-661.6089477539062,-1280.684326171875,-1487.2896728515625
315938.2029144809,-664.161865234375,-1234.6092529296875,-1093.15283203125,-1145.0308837890625,-1068.9007568359375,-668.3040771484375,-1289.629150390625,-1495.9307861328125
315938.20691448083,-669.6224975585938,-1239.9779052734375,-1098.4920654296875,-1150.4185791015625,-1074.412353515625,-673.9215698242188,-1294.9468994140625,-1501.3194580078125
315938.21091448085,-666.3391723632812,-1235.5694580078125,-1094.314453125,-1146.179931640625,-1071.10791015625,-671.4205932617188,-1290.3961181640625,-1496.9683837890625
315938.21491448086,-658.3055419921875,-1226.6885986328125,-1085.63232421875,-1137.4423828125,-1063.0843505859375,-663.9920043945312,-1281.44580078125,-1488.1204833984375
315938.2189144809,-655.0076904296875,-1224.0272216796875,-1082.8585205078125,-1134.6680908203125,-1059.79296875,-660.2705078125,-1278.7813720703125,-1485.250732421875
315938.2229144809,-663.0432739257812,-1233.40966796875,-1091.9417724609375,-1143.875732421875,-1067.8804931640625,-667.4052734375,-1288.2078857421875,-1494.4979248046875
315938.22691448085,-669.7573852539062,-1240.081787109375,-1098.5989990234375,-1150.595947265625,-1074.607177734375,-674.1693725585938,-1294.9139404296875,-1501.302978515625
315938.23091448087,-666.3081665039062,-1235.5789794921875,-1094.31640625,-1146.3043212890625,-1071.1329345703125,-671.424072265625,-1290.2861328125,-1496.9324951171875
315938.2349144809,-657.8214721679688,-1226.3768310546875,-1085.256103515625,-1137.1591796875,-1062.7301025390625,-663.5379028320312,-1280.9676513671875,-1487.790283203125
315938.2389144809,-655.2579956054688,-1224.4793701171875,-1083.2852783203125,-1135.1922607421875,-1060.1806640625,-660.5147705078125,-1279.1885986328125,-1485.77783203125
315938.24291448086,-662.9853515625,-1233.379150390625,-1091.9737548828125,-1144.0311279296875,-1067.8475341796875,-667.33984375,-1288.2293701171875,-1494.5079345703125
315938.2469144809,-668.859130859375,-1239.197021484375,-1097.7386474609375,-1149.9034423828125,-1073.7493896484375,-673.2920532226562,-1294.0296630859375,-1500.4356689453125
315938.2509144809,-665.8031005859375,-1235.19580078125,-1093.918701171875,-1145.9891357421875,-1070.729248046875,-670.9369506835938,-1289.94140625,-1496.63720703125
315938.2549144809,-657.5531616210938,-1226.42626953125,-1085.2421875,-1137.1826171875,-1062.670654296875,-663.2451171875,-1281.115966796875,-1488.0750732421875
315938.25891448086,-655.0556640625,-1224.9110107421875,-1083.5335693359375,-1135.4599609375,-1060.39697265625,-660.2365112304688,-1279.714111328125,-1486.584228515625
315938.2629144809,-662.4542236328125,-1233.440673828125,-1091.85791015625,-1143.851318359375,-1067.6956787109375,-666.69384765625,-1288.4166259765625,-1494.946533203125
315938.2669144809,-667.87744140625,-1238.4951171875,-1096.94384765625,-1148.9752197265625,-1072.906982421875,-672.177490234375,-1293.5006103515625,-1499.9534912109375
315938.2709144809,-664.8568115234375,-1234.119140625,-1092.8546142578125,-1144.8824462890625,-1069.6151123046875,-669.7564086914062,-1289.0361328125,-1495.6224365234375
315938.27491448086,-656.5804443359375,-1224.9349365234375,-1083.9251708984375,-1135.8421630859375,-1061.3212890625,-662.1544799804688,-1279.7646484375,-1486.4873046875
315938.2789144809,-653.3980102539062,-1222.3385009765625,-1081.2138671875,-1133.08984375,-1058.0499267578125,-658.4839477539062,-1277.1842041015625,-1483.7044677734375
315938.2829144809,-661.4710083007812,-1231.5196533203125,-1090.165771484375,-1142.181640625,-1065.97802734375,-665.5687866210938,-1286.46826171875,-1492.659912109375
315938.2869144809,-668.5658569335938,-1238.6455078125,-1097.2125244140625,-1149.2655029296875,-1073.1668701171875,-672.8084716796875,-1293.547607421875,-1499.8311767578125
315938.29091448087,-666.6039428710938,-1235.8067626953125,-1094.5386962890625,-1146.4552001953125,-1071.312255859375,-671.575927734375,-1290.65087890625,-1497.1846923828125
315938.2949144809,-658.104736328125,-1226.4842529296875,-1085.4195556640625,-1137.24853515625,-1062.8570556640625,-663.7362060546875,-1281.1209716796875,-1487.9046630859375
315938.2989144809,-654.3092651367188,-1222.9405517578125,-1081.90087890625,-1133.703857421875,-1058.7967529296875,-659.4996337890625,-1277.5762939453125,-1484.033203125
315938.3029144809,-661.251708984375,-1230.769287109375,-1089.5687255859375,-1141.4876708984375,-1065.45703125,-665.5238037109375,-1285.572509765625,-1491.544189453125
315938.3069144809,-667.2879028320312,-1236.6810302734375,-1095.489990234375,-1147.48291015625,-1071.481201171875,-671.6643676757812,-1291.5416259765625,-1497.510986328125
315938.3109144809,-664.8328247070312,-1233.3936767578125,-1092.385986328125,-1144.3009033203125,-1069.1405029296875,-669.9088134765625,-1288.2618408203125,-1494.548828125
315938.3149144809,-656.7767944335938,-1224.72607421875,-1083.8487548828125,-1135.642333984375,-1061.2183837890625,-662.4502563476562,-1279.497802734375,-1486.048583984375
315938.3189144809,-653.4644165039062,-1222.1661376953125,-1081.139892578125,-1132.9090576171875,-1057.928466796875,-658.664794921875,-1276.994873046875,-1483.3682861328125
315938.32291448093,-660.7860717773438,-1230.7838134765625,-1089.4952392578125,-1141.4232177734375,-1065.30712890625,-665.1830444335938,-1285.683349609375,-1491.8165283203125
315938.3269144809,-667.3138427734375,-1237.3819580078125,-1096.0455322265625,-1148.0728759765625,-1071.9923095703125,-671.8627319335938,-1292.22216796875,-1498.5401611328125
315938.3309144809,-665.3334350585938,-1234.627685546875,-1093.4161376953125,-1145.3670654296875,-1070.1937255859375,-670.6007080078125,-1289.3968505859375,-1496.000732421875
315938.3349144809,-658.1566772460938,-1226.66357421875,-1085.5928955078125,-1137.5003662109375,-1063.015380859375,-663.9590454101562,-1281.308837890625,-1488.091064453125
315938.33891448093,-654.8443603515625,-1223.784423828125,-1082.6712646484375,-1134.50927734375,-1059.51025390625,-660.1486206054688,-1278.4896240234375,-1485.00048828125
315938.3429144809,-661.5390014648438,-1231.53564453125,-1090.1956787109375,-1142.07666015625,-1066.0799560546875,-665.9859008789062,-1286.4088134765625,-1492.466552734375
315938.3469144809,-667.900390625,-1237.7486572265625,-1096.3912353515625,-1148.378662109375,-1072.3494873046875,-672.349365234375,-1292.67431640625,-1498.7650146484375
315938.3509144809,-664.9607543945312,-1233.8138427734375,-1092.6947021484375,-1144.6431884765625,-1069.411865234375,-670.0611572265625,-1288.722412109375,-1495.0914306640625
315938.35491448094,-656.88623046875,-1225.0008544921875,-1084.0660400390625,-1135.8621826171875,-1061.353759765625,-662.4862060546875,-1279.8795166015625,-1486.4163818359375
315938.3589144809,-653.8881225585938,-1222.7177734375,-1081.6510009765625,-1133.39208984375,-1058.381591796875,-658.95703125,-1277.7037353515625,-1484.0152587890625
315938.3629144809,-661.337158203125,-1231.245849609375,-1089.9569091796875,-1141.7974853515625,-1065.6922607421875,-665.486328125,-1286.350341796875,-1492.3145751953125
315938.3669144809,-667.6651000976562,-1237.5184326171875,-1096.17041015625,-1148.0198974609375,-1072.043701171875,-671.9571533203125,-1292.4893798828125,-1498.5970458984375
315938.37091448094,-665.7601318359375,-1234.797119140625,-1093.541015625,-1145.3131103515625,-1070.2601318359375,-670.7261352539062,-1289.6217041015625,-1496.033203125
315938.3749144809,-658.4979248046875,-1226.68359375,-1085.6822509765625,-1137.52734375,-1062.9525146484375,-663.9050903320312,-1281.568603515625,-1488.1534423828125
315938.3789144809,-655.46533203125,-1224.237060546875,-1083.207763671875,-1135.124267578125,-1059.900390625,-660.3878784179688,-1279.3070068359375,-1485.6614990234375
315938.3829144809,-663.0227661132812,-1233.1907958984375,-1091.871826171875,-1143.8233642578125,-1067.6287841796875,-667.2333984375,-1288.3492431640625,-1494.41845703125
315938.38691448094,-668.7337036132812,-1238.7388916015625,-1097.44384765625,-1149.4713134765625,-1073.2626953125,-673.05224609375,-1293.94775390625,-1500.0264892578125
315938.3909144809,-666.1982421875,-1235.165771484375,-1094.099609375,-1146.093505859375,-1070.7532958984375,-671.2467041015625,-1290.2576904296875,-1496.583740234375
315938.3949144809,-658.299560546875,-1226.5311279296875,-1085.6063232421875,-1137.52685546875,-1062.9744873046875,-663.9860229492188,-1281.481689453125,-1488.007080078125
315938.39891448093,-655.1780395507812,-1223.9212646484375,-1082.9410400390625,-1134.8795166015625,-1059.7740478515625,-660.3764038085938,-1278.939208984375,-1485.2662353515625
315938.40291448095,-662.59912109375,-1232.516845703125,-1091.289794921875,-1143.376220703125,-1067.1475830078125,-666.9471435546875,-1287.63427734375,-1493.6075439453125
315938.4069144809,-668.935546875,-1238.8338623046875,-1097.5543212890625,-1149.7960205078125,-1073.5379638671875,-673.3975219726562,-1293.979736328125,-1499.9539794921875
315938.4109144809,-666.0913696289062,-1235.11328125,-1093.9976806640625,-1146.1663818359375,-1070.7841796875,-671.2357177734375,-1290.15625,-1496.456787109375
315938.41491448093,-658.3155517578125,-1226.8873291015625,-1085.8001708984375,-1137.838134765625,-1063.2857666015625,-664.1743774414062,-1281.66259765625,-1488.32177734375
315938.41891448095,-655.0076904296875,-1224.0382080078125,-1082.8909912109375,-1135.037353515625,-1059.8514404296875,-660.3958740234375,-1278.9107666015625,-1485.3092041015625
315938.42291448097,-661.3916015625,-1231.308837890625,-1090.02880859375,-1142.267578125,-1065.9495849609375,-665.8495483398438,-1286.4661865234375,-1492.341064453125
315938.4269144809,-667.2244262695312,-1236.9163818359375,-1095.6552734375,-1147.925048828125,-1071.6614990234375,-671.7328491210938,-1292.213134765625,-1497.9476318359375
315938.43091448094,-664.73193359375,-1233.3896484375,-1092.314453125,-1144.6246337890625,-1069.07861328125,-669.7958984375,-1288.6939697265625,-1494.6612548828125
315938.43491448095,-657.2703857421875,-1225.7198486328125,-1084.5821533203125,-1136.697509765625,-1061.9493408203125,-662.846435546875,-1281.125,-1487.2677001953125
315938.43891448097,-653.774169921875,-1222.89404296875,-1081.7813720703125,-1133.9312744140625,-1058.528076171875,-658.9515380859375,-1278.829833984375,-1484.5198974609375
315938.4429144809,-661.1358032226562,-1231.4337158203125,-1090.100830078125,-1142.406982421875,-1065.8182373046875,-665.40087890625,-1287.5968017578125,-1492.84814453125
315938.44691448094,-667.2619018554688,-1237.67724609375,-1096.2164306640625,-1148.5885009765625,-1072.0467529296875,-671.5589599609375,-1293.8328857421875,-1499.1890869140625
315938.45091448096,-664.3467407226562,-1233.9752197265625,-1092.6412353515625,-1144.8955078125,-1069.25146484375,-669.2537841796875,-1290.103271484375,-1495.8148193359375
315938.454914481,-656.6129150390625,-1225.5159912109375,-1084.3323974609375,-1136.4881591796875,-1061.5946044921875,-662.092041015625,-1281.5382080078125,-1487.4749755859375
315938.4589144809,-653.1571655273438,-1222.6103515625,-1081.355224609375,-1133.5020751953125,-1058.06787109375,-658.191650390625,-1278.676025390625,-1484.364013671875
315938.46291448094,-660.3329467773438,-1231.093017578125,-1089.5482177734375,-1141.7808837890625,-1065.26318359375,-664.4506225585938,-1287.3599853515625,-1492.6868896484375
315938.46691448096,-666.2656860351562,-1236.955322265625,-1095.406005859375,-1147.6522216796875,-1071.1943359375,-670.4133911132812,-1293.2288818359375,-1498.6201171875
315938.470914481,-663.00927734375,-1232.5404052734375,-1091.25830078125,-1143.3861083984375,-1067.8775634765625,-667.8878784179688,-1288.633056640625,-1494.2945556640625
315938.47491448093,-654.7673950195312,-1223.3836669921875,-1082.301025390625,-1134.2939453125,-1059.564697265625,-660.2424926757812,-1279.369384765625,-1485.1243896484375
315938.47891448095,-651.4525756835938,-1220.468017578125,-1079.346923828125,-1131.267822265625,-1056.0439453125,-656.489990234375,-1276.480712890625,-1481.930419921875
315938.48291448096,-658.2156372070312,-1228.3372802734375,-1087.020751953125,-1139.0330810546875,-1062.7071533203125,-662.4612426757812,-1284.368408203125,-1489.539306640625
315938.486914481,-664.634033203125,-1234.646728515625,-1093.3096923828125,-1145.4295654296875,-1069.0985107421875,-668.9380493164062,-1290.6129150390625,-1495.894775390625
315938.49091448094,-662.2719116210938,-1231.3973388671875,-1090.2481689453125,-1142.2860107421875,-1066.872314453125,-667.2948608398438,-1287.2376708984375,-1492.857177734375
315938.49491448095,-654.7109375,-1223.095458984375,-1082.1162109375,-1134.03759765625,-1059.390869140625,-660.3334350585938,-1278.809326171875,-1484.6632080078125
315938.49891448097,-651.4725341796875,-1220.3046875,-1079.25048828125,-1131.1964111328125,-1055.9725341796875,-656.574462890625,-1276.03857421875,-1481.6436767578125
315938.502914481,-658.4229736328125,-1228.2423095703125,-1087.0252685546875,-1139.0771484375,-1062.6806640625,-662.5307006835938,-1284.283935546875,-1489.41796875
315938.50691448094,-664.1348876953125,-1233.853759765625,-1092.6507568359375,-1144.7005615234375,-1068.381591796875,-668.3785400390625,-1289.962890625,-1495.0513916015625
315938.51091448095,-661.0848388671875,-1230.0458984375,-1088.9736328125,-1140.837646484375,-1065.556884765625,-666.1497802734375,-1286.0635986328125,-1491.4608154296875
315938.51491448097,-653.4354858398438,-1221.567626953125,-1080.67431640625,-1132.52783203125,-1057.904541015625,-659.0274658203125,-1277.4654541015625,-1483.0965576171875
315938.518914481,-649.8703002929688,-1218.379150390625,-1077.4669189453125,-1129.368896484375,-1054.110107421875,-654.9417724609375,-1274.3294677734375,-1479.708740234375
315938.522914481,-657.048095703125,-1226.5511474609375,-1085.4334716796875,-1137.5198974609375,-1061.009521484375,-661.0418701171875,-1282.7047119140625,-1487.6368408203125
315938.52691448096,-663.4364624023438,-1233.04443359375,-1091.8128662109375,-1143.833740234375,-1067.5252685546875,-667.6281127929688,-1289.0706787109375,-1494.1162109375
315938.530914481,-660.4593505859375,-1229.108154296875,-1088.0843505859375,-1139.98193359375,-1064.6566162109375,-665.4593505859375,-1284.9639892578125,-1490.32275390625
315938.534914481,-653.1376953125,-1221.1619873046875,-1080.2606201171875,-1132.107666015625,-1057.46484375,-658.664306640625,-1276.9268798828125,-1482.6083984375
315938.538914481,-649.720458984375,-1218.4271240234375,-1077.4129638671875,-1129.27099609375,-1054.047607421875,-654.7459106445312,-1274.259521484375,-1479.798095703125
315938.54291448096,-656.7982788085938,-1226.72900390625,-1085.4219970703125,-1137.3740234375,-1061.0340576171875,-660.886474609375,-1282.644287109375,-1487.84326171875
315938.546914481,-663.6262817382812,-1233.4146728515625,-1092.1575927734375,-1144.251953125,-1067.818115234375,-667.696533203125,-1289.484375,-1494.6917724609375
315938.550914481,-660.9474487304688,-1229.9619140625,-1088.8572998046875,-1140.8101806640625,-1065.3546142578125,-665.7515869140625,-1285.982177734375,-1491.521728515625
315938.554914481,-652.8839111328125,-1221.113037109375,-1080.149169921875,-1132.0078125,-1057.3638916015625,-658.3710327148438,-1276.8714599609375,-1482.6998291015625
315938.55891448096,-649.5015869140625,-1218.1439208984375,-1077.0692138671875,-1129.006103515625,-1053.8067626953125,-654.5410766601562,-1273.732421875,-1479.3590087890625
315938.562914481,-656.1737670898438,-1226.008544921875,-1084.72607421875,-1136.763916015625,-1060.471923828125,-660.4163818359375,-1281.72998046875,-1487.0118408203125
315938.566914481,-662.6395874023438,-1232.5189208984375,-1091.1649169921875,-1143.226806640625,-1067.0147705078125,-666.99560546875,-1288.205810546875,-1493.576171875
315938.570914481,-660.4263916015625,-1229.1416015625,-1088.0423583984375,-1140.06787109375,-1064.714599609375,-665.4129028320312,-1284.7706298828125,-1490.3402099609375
315938.57491448097,-653.1651611328125,-1221.224365234375,-1080.295654296875,-1132.2041015625,-1057.6187744140625,-658.7667236328125,-1276.7774658203125,-1482.5728759765625
315938.578914481,-650.1016235351562,-1219.1060791015625,-1077.992431640625,-1129.9119873046875,-1054.75048828125,-655.2490234375,-1274.7930908203125,-1480.4781494140625
315938.582914481,-657.351806640625,-1227.8350830078125,-1086.44921875,-1138.550048828125,-1062.106201171875,-661.5684814453125,-1283.8448486328125,-1489.2196044921875
315938.586914481,-663.9220581054688,-1234.388427734375,-1092.95703125,-1145.167724609375,-1068.6759033203125,-668.1456909179688,-1290.4715576171875,-1495.892822265625
315938.59091448097,-661.294677734375,-1230.7008056640625,-1089.4862060546875,-1141.635009765625,-1066.0240478515625,-666.251708984375,-1286.5771484375,-1492.339599609375
315938.594914481,-653.2791137695312,-1221.9273681640625,-1080.856201171875,-1132.884521484375,-1058.0428466796875,-658.8436279296875,-1277.58935546875,-1483.610595703125
315938.598914481,-649.86083984375,-1218.5540771484375,-1077.5123291015625,-1129.630126953125,-1054.14501953125,-654.8323364257812,-1274.248046875,-1479.8651123046875
315938.602914481,-657.16650390625,-1226.83642578125,-1085.641357421875,-1137.8515625,-1061.2418212890625,-661.2532348632812,-1282.706787109375,-1487.8956298828125
315938.606914481,-663.3005981445312,-1233.14990234375,-1091.8558349609375,-1144.023681640625,-1067.602783203125,-667.6491088867188,-1288.9522705078125,-1494.235107421875
315938.610914481,-661.166259765625,-1229.91845703125,-1088.832763671875,-1141.0130615234375,-1065.3260498046875,-665.9414672851562,-1285.6854248046875,-1491.259521484375
315938.614914481,-654.053466796875,-1222.214599609375,-1081.3502197265625,-1133.6080322265625,-1058.3721923828125,-659.2512817382812,-1278.1134033203125,-1484.020751953125
315938.618914481,-650.3084716796875,-1219.9423828125,-1078.748291015625,-1130.639892578125,-1055.3470458984375,-655.5277709960938,-1275.749267578125,-1481.7095947265625
315938.62291448103,-657.5186767578125,-1228.444091796875,-1086.8992919921875,-1139.0301513671875,-1062.46630859375,-661.704345703125,-1284.31396484375,-1489.97900390625
315938.626914481,-663.8661499023438,-1234.4263916015625,-1092.9739990234375,-1145.2896728515625,-1068.6434326171875,-668.1232299804688,-1290.296630859375,-1495.970703125
315938.630914481,-661.37060546875,-1230.75927734375,-1089.5462646484375,-1141.79638671875,-1066.06298828125,-666.337646484375,-1286.4647216796875,-1492.3856201171875
315938.634914481,-653.35205078125,-1221.978271484375,-1080.9710693359375,-1133.078369140625,-1058.13232421875,-658.9695434570312,-1277.5863037109375,-1483.7115478515625
315938.63891448104,-650.3384399414062,-1219.3404541015625,-1078.271240234375,-1130.3155517578125,-1054.9283447265625,-655.5227661132812,-1274.958984375,-1480.73388671875
315938.642914481,-657.0630493164062,-1226.9302978515625,-1085.705810546875,-1137.89599609375,-1061.34521484375,-661.3616333007812,-1282.7467041015625,-1488.0030517578125
315938.646914481,-663.39501953125,-1233.1973876953125,-1091.9407958984375,-1144.2080078125,-1067.670166015625,-667.7979736328125,-1289.023681640625,-1494.3330078125
315938.650914481,-661.0079345703125,-1229.907470703125,-1088.7978515625,-1140.9696044921875,-1065.3365478515625,-666.0713500976562,-1285.5919189453125,-1491.2554931640625
315938.65491448104,-653.171142578125,-1221.2518310546875,-1080.3240966796875,-1132.4229736328125,-1057.4998779296875,-658.7962036132812,-1276.779541015625,-1482.6903076171875
315938.658914481,-649.7384033203125,-1218.507568359375,-1077.517822265625,-1129.5936279296875,-1054.1700439453125,-655.01220703125,-1274.1881103515625,-1479.8450927734375
315938.662914481,-656.5694580078125,-1226.522705078125,-1085.296630859375,-1137.52587890625,-1060.9400634765625,-660.9624633789062,-1282.41552734375,-1487.67333984375
315938.66691448103,-663.0032958984375,-1232.8336181640625,-1091.6090087890625,-1143.9676513671875,-1067.3485107421875,-667.4817504882812,-1288.73291015625,-1494.01123046875
315938.67091448104,-660.8475341796875,-1229.6846923828125,-1088.6094970703125,-1140.965087890625,-1065.1842041015625,-665.929443359375,-1285.447509765625,-1491.0081787109375
315938.674914481,-652.642578125,-1220.9041748046875,-1079.908447265625,-1131.9677734375,-1057.2086181640625,-658.4779052734375,-1276.3878173828125,-1482.254150390625
315938.678914481,-649.0070190429688,-1217.729736328125,-1076.697021484375,-1128.724853515625,-1053.4111328125,-654.3712158203125,-1273.3302001953125,-1478.9383544921875
315938.68291448103,-656.2062377929688,-1226.02001953125,-1084.7960205078125,-1136.980224609375,-1060.37353515625,-660.562744140625,-1281.887939453125,-1487.08935546875
315938.68691448105,-662.3668212890625,-1231.913818359375,-1090.7108154296875,-1142.906494140625,-1066.3033447265625,-666.6973266601562,-1287.8211669921875,-1492.99462890625
315938.690914481,-659.3072509765625,-1227.6337890625,-1086.6929931640625,-1138.808349609375,-1063.098876953125,-664.2543334960938,-1283.400146484375,-1488.804931640625
315938.694914481,-651.705322265625,-1219.3983154296875,-1078.6195068359375,-1130.5928955078125,-1055.666259765625,-657.2333984375,-1275.04736328125,-1480.7474365234375
315938.69891448104,-648.642822265625,-1216.9188232421875,-1076.0489501953125,-1128.0408935546875,-1052.537841796875,-653.6403198242188,-1272.5972900390625,-1478.1075439453125
315938.702914481,-655.369384765625,-1224.8590087890625,-1083.73583984375,-1135.772216796875,-1059.1839599609375,-659.4931030273438,-1280.596923828125,-1485.77783203125
315938.706914481,-661.876708984375,-1231.29638671875,-1090.1492919921875,-1142.22607421875,-1065.7003173828125,-666.1143188476562,-1287.083740234375,-1492.297119140625
315938.710914481,-659.5795288085938,-1228.1029052734375,-1087.129638671875,-1139.0960693359375,-1063.489501953125,-664.4826049804688,-1283.870361328125,-1489.384521484375
315938.71491448104,-651.942138671875,-1219.705078125,-1078.8917236328125,-1130.7762451171875,-1055.879150390625,-657.307373046875,-1275.45849609375,-1481.2010498046875
315938.718914481,-649.0289916992188,-1217.4029541015625,-1076.5311279296875,-1128.401611328125,-1052.9739990234375,-653.9690551757812,-1273.322265625,-1478.8514404296875
315938.722914481,-656.5889282226562,-1226.4112548828125,-1085.1591796875,-1137.1376953125,-1060.6358642578125,-660.6886596679688,-1282.4110107421875,-1487.640869140625
315938.72691448097,-662.931396484375,-1232.7486572265625,-1091.4122314453125,-1143.5185546875,-1067.043701171875,-667.1420288085938,-1288.6815185546875,-1494.018798828125
315938.730914481,-660.0092163085938,-1228.9412841796875,-1087.7921142578125,-1139.800537109375,-1064.271484375,-664.9237670898438,-1284.78857421875,-1490.4755859375
315938.734914481,-652.5821533203125,-1220.919189453125,-1079.9058837890625,-1131.8104248046875,-1057.043212890625,-658.0752563476562,-1276.714599609375,-1482.683837890625
315938.738914481,-649.3377685546875,-1218.248291015625,-1077.148681640625,-1129.0771484375,-1053.725341796875,-654.3172607421875,-1274.0926513671875,-1479.8250732421875
315938.742914481,-656.4705200195312,-1226.5816650390625,-1085.2181396484375,-1137.2919921875,-1060.792236328125,-660.5947265625,-1282.513427734375,-1487.857177734375
315938.746914481,-662.7755126953125,-1232.836181640625,-1091.460205078125,-1143.5650634765625,-1067.1231689453125,-667.1285400390625,-1288.676025390625,-1494.060791015625
315938.750914481,-660.1130981445312,-1229.4278564453125,-1088.229248046875,-1140.111328125,-1064.7764892578125,-665.4957885742188,-1285.0518798828125,-1490.7763671875
315938.754914481,-651.99609375,-1220.39013671875,-1079.5037841796875,-1131.38427734375,-1056.7109375,-658.018798828125,-1276.093994140625,-1481.9678955078125
315938.758914481,-648.556884765625,-1217.535888671875,-1076.556640625,-1128.45263671875,-1053.2122802734375,-654.0789184570312,-1273.2613525390625,-1478.9268798828125
315938.762914481,-655.55029296875,-1225.76025390625,-1084.5137939453125,-1136.503662109375,-1060.0992431640625,-660.1160888671875,-1281.59765625,-1486.8955078125
315938.766914481,-662.2049560546875,-1232.375,-1091.0545654296875,-1143.0804443359375,-1066.732421875,-666.8457641601562,-1288.1539306640625,-1493.503662109375
315938.770914481,-659.7294311523438,-1229.046142578125,-1087.863037109375,-1139.7745361328125,-1064.3992919921875,-665.07763671875,-1284.6842041015625,-1490.41015625
315938.774914481,-651.888671875,-1220.467041015625,-1079.4722900390625,-1131.3587646484375,-1056.674560546875,-657.7999877929688,-1276.027587890625,-1482.014404296875
315938.778914481,-648.9400634765625,-1218.245849609375,-1077.149658203125,-1129.05859375,-1053.7384033203125,-654.3037719726562,-1273.9412841796875,-1479.7391357421875
315938.782914481,-656.4725341796875,-1226.9837646484375,-1085.641357421875,-1137.709716796875,-1061.1129150390625,-660.820068359375,-1282.883544921875,-1488.2847900390625
315938.786914481,-662.8729248046875,-1233.6529541015625,-1092.203125,-1144.20849609375,-1067.7901611328125,-667.4517822265625,-1289.4822998046875,-1495.098876953125
315938.790914481,-660.2005615234375,-1230.274658203125,-1088.9766845703125,-1140.815673828125,-1065.39599609375,-665.5473022460938,-1286.0101318359375,-1491.9998779296875
315938.794914481,-652.7984619140625,-1222.0732421875,-1080.9686279296875,-1132.7496337890625,-1058.0289306640625,-658.6787719726562,-1277.7362060546875,-1483.914306640625
315938.798914481,-649.6839599609375,-1219.4302978515625,-1078.2332763671875,-1130.0303955078125,-1054.7650146484375,-655.1126098632812,-1275.078369140625,-1481.023193359375
315938.802914481,-656.381591796875,-1227.319580078125,-1085.8726806640625,-1137.819091796875,-1061.3702392578125,-660.9404296875,-1283.1319580078125,-1488.7130126953125
315938.806914481,-662.567138671875,-1233.3731689453125,-1091.9102783203125,-1143.9931640625,-1067.5142822265625,-667.2034301757812,-1289.162109375,-1494.815673828125
315938.810914481,-660.1790771484375,-1229.9609375,-1088.725341796875,-1140.7322998046875,-1065.1837158203125,-665.5347900390625,-1285.6773681640625,-1491.564208984375
315938.814914481,-652.4547729492188,-1221.461181640625,-1080.383056640625,-1132.310546875,-1057.517333984375,-658.3235473632812,-1277.1436767578125,-1483.2064208984375
315938.81891448103,-649.2987670898438,-1218.86083984375,-1077.687744140625,-1129.59716796875,-1054.25048828125,-654.5995483398438,-1274.6181640625,-1480.4765625
315938.822914481,-656.9151611328125,-1227.708740234375,-1086.3272705078125,-1138.4251708984375,-1061.8323974609375,-661.360595703125,-1283.60205078125,-1489.1212158203125
315938.826914481,-663.330078125,-1234.176025390625,-1092.76318359375,-1144.9674072265625,-1068.380126953125,-667.9563598632812,-1290.0968017578125,-1495.7193603515625
315938.830914481,-660.6766967773438,-1230.4395751953125,-1089.2374267578125,-1141.373291015625,-1065.6693115234375,-665.9019775390625,-1286.3367919921875,-1492.1982421875
315938.83491448103,-652.9158935546875,-1221.8414306640625,-1080.7901611328125,-1132.8360595703125,-1057.882568359375,-658.6637573242188,-1277.67529296875,-1483.7215576171875
315938.838914481,-649.30029296875,-1218.8978271484375,-1077.7286376953125,-1129.8179931640625,-1054.265869140625,-654.5960083007812,-1274.8460693359375,-1480.6923828125
315938.842914481,-656.1453247070312,-1226.911865234375,-1085.5164794921875,-1137.733642578125,-1060.9700927734375,-660.5267944335938,-1283.0419921875,-1488.4866943359375
315938.846914481,-662.7904663085938,-1233.3096923828125,-1091.9398193359375,-1144.2159423828125,-1067.429443359375,-667.1475219726562,-1289.5367431640625,-1494.8885498046875
315938.85091448104,-660.7945556640625,-1230.0318603515625,-1088.9521484375,-1141.2083740234375,-1065.2615966796875,-665.8080444335938,-1286.1075439453125,-1491.7000732421875
315938.854914481,-652.7835083007812,-1221.310302734375,-1080.3990478515625,-1132.345947265625,-1057.4273681640625,-658.6028442382812,-1277.1971435546875,-1483.0555419921875
315938.858914481,-649.66748046875,-1218.7489013671875,-1077.7835693359375,-1129.7220458984375,-1054.2169189453125,-654.979736328125,-1274.779541015625,-1480.3671875
315938.862914481,-657.2124633789062,-1227.5399169921875,-1086.3272705078125,-1138.4710693359375,-1061.64501953125,-661.509521484375,-1283.828369140625,-1489.042236328125
315938.86691448104,-663.8521118164062,-1234.4373779296875,-1093.0953369140625,-1145.2396240234375,-1068.5130615234375,-668.3490600585938,-1290.6923828125,-1496.0640869140625
315938.870914481,-661.8102416992188,-1231.4437255859375,-1090.254150390625,-1142.3619384765625,-1066.505126953125,-666.9066772460938,-1287.6473388671875,-1493.2943115234375
315938.874914481,-654.2887573242188,-1222.8126220703125,-1081.837890625,-1134.089111328125,-1058.6419677734375,-659.5445556640625,-1279.0301513671875,-1484.82861328125
315938.878914481,-650.8240356445312,-1220.2412109375,-1079.2030029296875,-1131.1009521484375,-1055.537353515625,-656.100341796875,-1276.5501708984375,-1482.1942138671875
315938.882914481,-657.5431518554688,-1228.248779296875,-1086.9522705078125,-1138.9327392578125,-1062.2225341796875,-661.984130859375,-1284.6851806640625,-1490.0054931640625
315938.886914481,-663.406494140625,-1233.94921875,-1092.624267578125,-1144.759033203125,-1067.9635009765625,-667.7424926757812,-1290.47998046875,-1495.7413330078125
315938.890914481,-660.8225708007812,-1230.2462158203125,-1089.1815185546875,-1141.2608642578125,-1065.364990234375,-665.85205078125,-1286.72607421875,-1492.24267578125
315938.89491448103,-653.2945556640625,-1221.9193115234375,-1081.050048828125,-1133.0518798828125,-1057.8505859375,-658.8286743164062,-1278.4326171875,-1484.104736328125
315938.898914481,-649.8798217773438,-1219.1201171875,-1078.1767578125,-1130.190673828125,-1054.40185546875,-654.92529296875,-1275.7547607421875,-1481.2015380859375
315938.902914481,-656.8462524414062,-1227.4219970703125,-1086.1773681640625,-1138.3282470703125,-1061.3472900390625,-660.9844360351562,-1284.215087890625,-1489.3189697265625
315938.90691448096,-663.3975219726562,-1233.9072265625,-1092.57177734375,-1144.8299560546875,-1067.80712890625,-667.5307006835938,-1290.6768798828125,-1495.8458251953125
315938.910914481,-660.7846069335938,-1230.2352294921875,-1089.0736083984375,-1141.2818603515625,-1065.1641845703125,-665.5992431640625,-1286.7310791015625,-1492.2716064453125
315938.914914481,-652.6870727539062,-1221.3367919921875,-1080.385009765625,-1132.37646484375,-1057.153076171875,-658.1546630859375,-1277.750244140625,-1483.4931640625
315938.918914481,-649.4661254882812,-1218.593994140625,-1077.5963134765625,-1129.4852294921875,-1053.852294921875,-654.550048828125,-1275.057861328125,-1480.49462890625
315938.922914481,-656.9126586914062,-1227.323974609375,-1086.06201171875,-1138.0234375,-1061.27587890625,-661.11181640625,-1283.8887939453125,-1488.9852294921875
315938.926914481,-663.427001953125,-1233.7823486328125,-1092.5533447265625,-1144.583251953125,-1067.7506103515625,-667.652099609375,-1290.3980712890625,-1495.6014404296875
315938.930914481,-660.9419555664062,-1230.2586669921875,-1089.239501953125,-1141.138916015625,-1065.273681640625,-665.8370361328125,-1286.8509521484375,-1492.2911376953125
315938.934914481,-653.4629516601562,-1221.978759765625,-1081.096435546875,-1132.9659423828125,-1057.853515625,-658.8501586914062,-1278.5430908203125,-1484.13916015625
315938.938914481,-649.7234497070312,-1218.9501953125,-1077.882568359375,-1129.7220458984375,-1054.177490234375,-654.7194213867188,-1275.4820556640625,-1480.9097900390625
315938.942914481,-656.9876098632812,-1227.449951171875,-1086.0894775390625,-1138.15087890625,-1061.36328125,-661.079833984375,-1284.064697265625,-1489.1651611328125
315938.946914481,-663.4110107421875,-1233.9857177734375,-1092.48583984375,-1144.6351318359375,-1067.883056640625,-667.5696411132812,-1290.4130859375,-1495.7178955078125
315938.950914481,-660.606201171875,-1230.1617431640625,-1088.894775390625,-1140.88720703125,-1065.1407470703125,-665.561279296875,-1286.521728515625,-1492.1202392578125
315938.95491448103,-652.7755126953125,-1221.4971923828125,-1080.4434814453125,-1132.29296875,-1057.3480224609375,-658.362548828125,-1277.7886962890625,-1483.5640869140625
315938.958914481,-649.570556640625,-1218.851318359375,-1077.72021484375,-1129.61767578125,-1054.0765380859375,-654.6964721679688,-1275.1693115234375,-1480.723388671875
315938.962914481,-656.7868041992188,-1227.3145751953125,-1085.9471435546875,-1138.0169677734375,-1061.2647705078125,-661.0233764648438,-1283.7254638671875,-1488.9208984375
315938.966914481,-663.2371215820312,-1233.7188720703125,-1092.3284912109375,-1144.4703369140625,-1067.7620849609375,-667.6031494140625,-1290.048828125,-1495.3067626953125
315938.97091448103,-660.2474975585938,-1229.6956787109375,-1088.51806640625,-1140.5914306640625,-1064.7969970703125,-665.3499145507812,-1285.84326171875,-1491.410888671875
315938.974914481,-652.5836181640625,-1221.2744140625,-1080.255615234375,-1132.2705078125,-1057.173583984375,-658.2216186523438,-1277.319091796875,-1483.1553955078125
315938.978914481,-648.9515380859375,-1218.14892578125,-1077.0792236328125,-1129.112548828125,-1053.4326171875,-654.1024169921875,-1274.31201171875,-1479.8985595703125
315938.982914481,-656.4805297851562,-1226.81396484375,-1085.50244140625,-1137.7032470703125,-1060.7877197265625,-660.6611938476562,-1283.169921875,-1488.392822265625
315938.98691448104,-662.9193725585938,-1233.28125,-1091.8973388671875,-1144.155517578125,-1067.2235107421875,-667.1105346679688,-1289.6666259765625,-1494.9764404296875
315938.990914481,-660.648681640625,-1229.982421875,-1088.8272705078125,-1141.049560546875,-1064.962890625,-665.474853515625,-1286.351806640625,-1491.930908203125
315938.994914481,-652.4657592773438,-1220.71728515625,-1079.83544921875,-1131.92236328125,-1056.635986328125,-657.824462890625,-1277.0477294921875,-1482.6903076171875
315938.998914481,-648.8396606445312,-1217.5977783203125,-1076.6524658203125,-1128.6510009765625,-1052.9779052734375,-653.8701171875,-1273.9017333984375,-1479.2965087890625
315939.002914481,-655.497802734375,-1225.62841796875,-1084.3988037109375,-1136.5006103515625,-1059.6695556640625,-659.7184448242188,-1281.9403076171875,-1487.060302734375
315939.006914481,-662.2744140625,-1232.4659423828125,-1091.1763916015625,-1143.3492431640625,-1066.4482421875,-666.47705078125,-1288.827392578125,-1494.0362548828125
315939.010914481,-660.0202026367188,-1229.5382080078125,-1088.380126953125,-1140.471435546875,-1064.4608154296875,-664.8997802734375,-1285.84521484375,-1491.5133056640625
315939.014914481,-652.911376953125,-1222.00634765625,-1080.902587890625,-1132.969970703125,-1057.687744140625,-658.4089965820312,-1278.1148681640625,-1484.236083984375
315939.018914481,-650.1160888671875,-1219.9234619140625,-1078.7208251953125,-1130.792724609375,-1054.9798583984375,-655.174072265625,-1276.1820068359375,-1482.0428466796875
315939.022914481,-656.90771484375,-1227.968505859375,-1086.545654296875,-1138.7613525390625,-1061.7894287109375,-661.144287109375,-1284.3599853515625,-1489.860595703125
315939.02691448096,-662.9418334960938,-1233.90380859375,-1092.4359130859375,-1144.6995849609375,-1067.8375244140625,-667.2933959960938,-1290.19775390625,-1495.725341796875
315939.030914481,-660.3973999023438,-1230.3990478515625,-1089.1199951171875,-1141.23486328125,-1065.426025390625,-665.540283203125,-1286.48974609375,-1492.3575439453125
315939.034914481,-652.4462280273438,-1221.576171875,-1080.493408203125,-1132.4208984375,-1057.5263671875,-658.2096557617188,-1277.5093994140625,-1483.5731201171875
315939.038914481,-648.772705078125,-1218.379150390625,-1077.2470703125,-1129.142578125,-1053.734375,-654.1089477539062,-1274.35498046875,-1480.171875
315939.04291448096,-655.638671875,-1226.51513671875,-1085.079345703125,-1137.11572265625,-1060.5048828125,-660.0252075195312,-1282.61083984375,-1488.114990234375
315939.046914481,-661.983642578125,-1232.6727294921875,-1091.221923828125,-1143.354736328125,-1066.728515625,-666.4075927734375,-1288.697509765625,-1494.302001953125
315939.050914481,-659.6505126953125,-1229.2135009765625,-1088.0050048828125,-1139.9903564453125,-1064.347412109375,-664.742919921875,-1285.19970703125,-1491.005615234375
315939.05491448095,-651.9691162109375,-1220.6649169921875,-1079.651123046875,-1131.480712890625,-1056.6944580078125,-657.7090454101562,-1276.4837646484375,-1482.5
315939.05891448096,-648.375,-1217.3924560546875,-1076.3917236328125,-1128.1883544921875,-1052.8995361328125,-653.71923828125,-1273.2547607421875,-1478.9453125
315939.062914481,-655.2515258789062,-1225.2701416015625,-1084.0736083984375,-1135.9276123046875,-1059.4952392578125,-659.6714477539062,-1281.2139892578125,-1486.4493408203125
315939.066914481,-661.8267211914062,-1231.6776123046875,-1090.468505859375,-1142.3299560546875,-1065.9276123046875,-666.2382202148438,-1287.581298828125,-1492.84716796875
315939.07091448095,-658.7971801757812,-1227.5108642578125,-1086.5611572265625,-1138.314208984375,-1062.892578125,-663.9220581054688,-1283.2427978515625,-1488.8004150390625
315939.07491448097,-651.2037353515625,-1219.2904052734375,-1078.4290771484375,-1130.1376953125,-1055.5269775390625,-656.9691162109375,-1274.8675537109375,-1480.7353515625
315939.078914481,-647.565185546875,-1216.515625,-1075.4774169921875,-1127.127197265625,-1052.149169921875,-653.1022338867188,-1272.0087890625,-1477.814208984375
315939.082914481,-655.0161743164062,-1225.41455078125,-1084.0810546875,-1135.900146484375,-1059.7130126953125,-659.6819458007812,-1280.9931640625,-1486.5272216796875
315939.08691448095,-661.8822021484375,-1232.4798583984375,-1091.0870361328125,-1143.0029296875,-1066.717529296875,-666.5514526367188,-1288.0150146484375,-1493.7659912109375
315939.09091448097,-659.79736328125,-1229.6826171875,-1088.4306640625,-1140.263671875,-1064.921875,-665.2344970703125,-1285.0653076171875,-1491.2969970703125
315939.094914481,-651.811767578125,-1220.8721923828125,-1079.78955078125,-1131.525634765625,-1056.9892578125,-657.909912109375,-1276.0440673828125,-1482.554931640625
315939.098914481,-648.0217895507812,-1217.3375244140625,-1076.236328125,-1127.98095703125,-1052.9210205078125,-653.6278076171875,-1272.579345703125,-1478.7879638671875
315939.10291448096,-654.9732055664062,-1225.470458984375,-1084.1165771484375,-1136.0584716796875,-1059.7490234375,-659.6370239257812,-1280.896240234375,-1486.6861572265625
315939.106914481,-661.3131713867188,-1231.846923828125,-1090.4110107421875,-1142.5198974609375,-1066.159423828125,-666.0973510742188,-1287.1517333984375,-1493.0780029296875
315939.110914481,-659.139404296875,-1228.6524658203125,-1087.4263916015625,-1139.5372314453125,-1064.0435791015625,-664.6719970703125,-1283.848388671875,-1490.1053466796875
315939.114914481,-651.6798706054688,-1220.4544677734375,-1079.392333984375,-1131.4447021484375,-1056.6839599609375,-657.7874755859375,-1275.6109619140625,-1482.100830078125
315939.11891448096,-649.1803588867188,-1219.046142578125,-1077.800048828125,-1129.8824462890625,-1054.5181884765625,-654.83984375,-1274.3389892578125,-1480.8262939453125
315939.122914481,-656.3936157226562,-1227.8011474609375,-1086.2313232421875,-1138.4385986328125,-1061.846923828125,-661.1253051757812,-1283.2532958984375,-1489.4609375
315939.126914481,-662.6890869140625,-1233.9542236328125,-1092.39990234375,-1144.6571044921875,-1068.0198974609375,-667.4412841796875,-1289.5032958984375,-1495.679931640625
315939.13091448095,-660.023681640625,-1230.013916015625,-1088.7373046875,-1140.91064453125,-1065.2161865234375,-665.604248046875,-1285.4345703125,-1491.8084716796875
315939.13491448096,-652.005615234375,-1221.30029296875,-1080.17822265625,-1132.2540283203125,-1057.3494873046875,-658.300048828125,-1276.633544921875,-1483.2283935546875
315939.138914481,-648.6148071289062,-1218.5040283203125,-1077.31396484375,-1129.392822265625,-1053.959228515625,-654.5036010742188,-1273.9432373046875,-1480.335693359375
315939.142914481,-655.4293823242188,-1226.3603515625,-1084.9583740234375,-1137.1002197265625,-1060.6163330078125,-660.5098266601562,-1281.8209228515625,-1487.859130859375
315939.14691448095,-662.4122924804688,-1233.2757568359375,-1091.828369140625,-1144.03564453125,-1067.665771484375,-667.6695556640625,-1288.60302734375,-1494.687744140625
315939.15091448097,-660.0901489257812,-1229.9874267578125,-1088.7318115234375,-1140.835205078125,-1065.3560791015625,-665.9959106445312,-1285.2576904296875,-1491.6141357421875
315939.1549144809,-651.940673828125,-1220.9036865234375,-1079.87744140625,-1131.8753662109375,-1057.1346435546875,-658.3345336914062,-1276.1605224609375,-1482.6563720703125
315939.15891448094,-648.73974609375,-1218.116455078125,-1077.084228515625,-1129.0750732421875,-1053.7833251953125,-654.6160278320312,-1273.5245361328125,-1479.731689453125
315939.16291448096,-655.9634399414062,-1226.6260986328125,-1085.317138671875,-1137.408935546875,-1060.9755859375,-660.949462890625,-1282.13671875,-1488.030029296875
315939.166914481,-661.7193603515625,-1232.4434814453125,-1091.0479736328125,-1143.1728515625,-1066.847412109375,-666.8637084960938,-1287.861083984375,-1493.8638916015625
315939.170914481,-659.3182373046875,-1229.0516357421875,-1087.8695068359375,-1139.9593505859375,-1064.5296630859375,-665.16259765625,-1284.39892578125,-1490.6314697265625
315939.17491448094,-651.789794921875,-1220.8072509765625,-1079.7874755859375,-1131.8304443359375,-1057.174072265625,-658.3025512695312,-1275.9346923828125,-1482.46044921875
315939.17891448096,-648.5818481445312,-1218.083984375,-1077.024169921875,-1129.0731201171875,-1053.90771484375,-654.7019653320312,-1273.2662353515625,-1479.5428466796875
315939.182914481,-655.5217895507812,-1225.9581298828125,-1084.739501953125,-1136.88134765625,-1060.5399169921875,-660.6406860351562,-1281.2978515625,-1487.121337890625
315939.186914481,-661.6763916015625,-1231.9793701171875,-1090.73876953125,-1142.9615478515625,-1066.64306640625,-666.8607177734375,-1287.3310546875,-1493.136474609375
315939.19091448095,-659.4826049804688,-1228.8343505859375,-1087.763671875,-1139.9554443359375,-1064.5396728515625,-665.325927734375,-1284.175048828125,-1490.2122802734375
315939.19491448096,-651.7742919921875,-1220.337646484375,-1079.411376953125,-1131.5556640625,-1056.8873291015625,-658.2076416015625,-1275.51953125,-1481.8260498046875
315939.198914481,-647.7664794921875,-1216.6585693359375,-1075.6962890625,-1127.777587890625,-1052.6617431640625,-653.76171875,-1271.869384765625,-1477.88671875
315939.202914481,-654.5995483398438,-1224.4053955078125,-1083.2667236328125,-1135.4185791015625,-1059.16650390625,-659.6295166015625,-1279.8095703125,-1485.3387451171875
315939.20691448095,-660.744140625,-1230.4644775390625,-1089.2879638671875,-1141.49267578125,-1065.2940673828125,-665.87548828125,-1285.88818359375,-1491.4412841796875
315939.21091448097,-658.7532348632812,-1227.65283203125,-1086.6595458984375,-1138.7393798828125,-1063.45556640625,-664.5810546875,-1283.1083984375,-1488.935791015625
315939.214914481,-650.9913940429688,-1219.0521240234375,-1078.226806640625,-1130.2591552734375,-1055.726806640625,-657.4297485351562,-1274.3514404296875,-1480.4490966796875
315939.218914481,-647.5756225585938,-1215.921142578125,-1075.0892333984375,-1127.2115478515625,-1052.085693359375,-653.665283203125,-1271.135498046875,-1477.0048828125
315939.22291448095,-654.21484375,-1223.56005859375,-1082.54931640625,-1134.864501953125,-1058.4730224609375,-659.3677368164062,-1278.9088134765625,-1484.3485107421875
315939.22691448097,-660.7816162109375,-1230.3336181640625,-1089.2149658203125,-1141.6795654296875,-1065.22021484375,-666.0018920898438,-1285.705810546875,-1491.2655029296875
315939.230914481,-658.8241577148438,-1227.6937255859375,-1086.7109375,-1139.0850830078125,-1063.5350341796875,-664.7444458007812,-1283.0484619140625,-1488.9613037109375
315939.234914481,-651.2257080078125,-1219.345458984375,-1078.531494140625,-1130.78369140625,-1056.029052734375,-657.739501953125,-1274.5982666015625,-1480.7264404296875
315939.23891448096,-647.6111450195312,-1216.32177734375,-1075.3900146484375,-1127.5882568359375,-1052.4058837890625,-653.7332153320312,-1271.5506591796875,-1477.5064697265625
315939.242914481,-654.8807983398438,-1224.63720703125,-1083.488037109375,-1135.8311767578125,-1059.4422607421875,-660.0172119140625,-1280.079345703125,-1485.5985107421875
315939.246914481,-661.3861083984375,-1231.1214599609375,-1089.9189453125,-1142.3179931640625,-1065.9281005859375,-666.5624389648438,-1286.5771484375,-1492.1373291015625
315939.25091448094,-658.4864501953125,-1227.214111328125,-1086.2169189453125,-1138.45458984375,-1063.055908203125,-664.34521484375,-1282.59228515625,-1488.4072265625
315939.25491448096,-650.7510986328125,-1218.5860595703125,-1077.76513671875,-1129.844970703125,-1055.3255615234375,-657.2669067382812,-1273.7469482421875,-1479.78466796875
315939.258914481,-647.0975341796875,-1215.5360107421875,-1074.6451416015625,-1126.7020263671875,-1051.739990234375,-653.3130493164062,-1270.736328125,-1476.5887451171875
315939.262914481,-654.2843017578125,-1224.0511474609375,-1082.89599609375,-1135.1717529296875,-1058.927734375,-659.5216064453125,-1279.4942626953125,-1485.0159912109375
315939.26691448095,-660.6436767578125,-1230.5150146484375,-1089.2659912109375,-1141.613037109375,-1065.381591796875,-666.0054321289062,-1285.884765625,-1491.5377197265625
315939.27091448096,-658.3120727539062,-1227.0467529296875,-1086.0400390625,-1138.2991943359375,-1063.011962890625,-664.4271850585938,-1282.276123046875,-1488.19091796875
315939.2749144809,-650.5537719726562,-1218.5010986328125,-1077.6622314453125,-1129.8690185546875,-1055.321533203125,-657.2564086914062,-1273.6920166015625,-1479.8365478515625
315939.27891448094,-647.2109375,-1215.7298583984375,-1074.7860107421875,-1127.01171875,-1051.9312744140625,-653.3829956054688,-1271.169921875,-1477.0308837890625
315939.28291448095,-654.0839233398438,-1223.70947265625,-1082.5313720703125,-1134.8485107421875,-1058.62548828125,-659.2193603515625,-1279.434814453125,-1484.80615234375
315939.28691448097,-660.281982421875,-1229.866943359375,-1088.6639404296875,-1141.048583984375,-1064.8330078125,-665.475830078125,-1285.5565185546875,-1491.004150390625
315939.2909144809,-657.9803466796875,-1226.5537109375,-1085.59033203125,-1137.9295654296875,-1062.572265625,-663.879638671875,-1282.1517333984375,-1487.9151611328125
315939.29491448094,-650.519775390625,-1218.314697265625,-1077.5347900390625,-1129.791015625,-1055.1512451171875,-657.0115966796875,-1273.874755859375,-1479.842041015625
315939.29891448095,-646.99462890625,-1215.229248046875,-1074.42529296875,-1126.696044921875,-1051.4881591796875,-653.0707397460938,-1270.877685546875,-1476.57373046875
315939.3029144809,-653.9105834960938,-1223.3427734375,-1082.310546875,-1134.671142578125,-1058.273193359375,-659.0574951171875,-1279.1826171875,-1484.43994140625
315939.3069144809,-660.5313110351562,-1230.0748291015625,-1088.9761962890625,-1141.3778076171875,-1064.92041015625,-665.649169921875,-1285.9566650390625,-1491.31591796875
315939.31091448094,-658.5194091796875,-1227.277587890625,-1086.3367919921875,-1138.6549072265625,-1063.075927734375,-664.3362426757812,-1283.0994873046875,-1488.8343505859375
315939.31491448096,-651.0498657226562,-1218.9842529296875,-1078.2213134765625,-1130.4095458984375,-1055.6263427734375,-657.3958129882812,-1274.777587890625,-1480.6534423828125
315939.3189144809,-647.2593994140625,-1215.5584716796875,-1074.7515869140625,-1126.92236328125,-1051.6419677734375,-653.1132202148438,-1271.44921875,-1477.0198974609375
315939.32291448093,-653.8916015625,-1223.2772216796875,-1082.2855224609375,-1134.638671875,-1058.0968017578125,-658.7911987304688,-1279.343994140625,-1484.548828125
315939.32691448095,-660.1690673828125,-1229.65771484375,-1088.56201171875,-1140.984619140625,-1064.4718017578125,-665.152587890625,-1285.6033935546875,-1490.97216796875
315939.33091448096,-658.1607055664062,-1226.79248046875,-1085.8502197265625,-1138.143310546875,-1062.6497802734375,-663.9810180664062,-1282.5523681640625,-1488.2603759765625
315939.3349144809,-650.5362548828125,-1218.3062744140625,-1077.57177734375,-1129.712646484375,-1055.037353515625,-656.9756469726562,-1273.958740234375,-1479.8216552734375
315939.33891448093,-646.898193359375,-1215.080322265625,-1074.264404296875,-1126.309814453125,-1051.17236328125,-652.911376953125,-1270.73681640625,-1476.346923828125
315939.34291448095,-654.2722778320312,-1223.5120849609375,-1082.4898681640625,-1134.65966796875,-1058.3232421875,-659.3287353515625,-1279.33642578125,-1484.5858154296875
315939.34691448096,-660.3713989257812,-1229.6002197265625,-1088.5550537109375,-1140.8297119140625,-1064.435791015625,-665.5043334960938,-1285.4844970703125,-1490.766845703125
315939.3509144809,-658.1766967773438,-1226.55419921875,-1085.6778564453125,-1137.880615234375,-1062.3544921875,-664.0344848632812,-1282.37548828125,-1487.93408203125
315939.35491448094,-650.4708251953125,-1218.139404296875,-1077.4278564453125,-1129.5462646484375,-1054.76806640625,-656.9606323242188,-1273.7933349609375,-1479.578369140625
315939.35891448095,-646.9381713867188,-1215.02392578125,-1074.285400390625,-1126.3828125,-1051.10595703125,-652.9822998046875,-1270.727783203125,-1476.2479248046875
315939.36291448097,-654.0164794921875,-1223.2012939453125,-1082.2655029296875,-1134.4808349609375,-1058.02490234375,-659.0874633789062,-1279.065673828125,-1484.2210693359375
315939.3669144809,-660.110107421875,-1229.3214111328125,-1088.3306884765625,-1140.5814208984375,-1064.113037109375,-665.2140502929688,-1285.1802978515625,-1490.45556640625
315939.37091448094,-657.8449096679688,-1226.08447265625,-1085.2901611328125,-1137.428466796875,-1061.8338623046875,-663.5943603515625,-1281.8939208984375,-1487.4510498046875
315939.3749144809,-650.8784790039062,-1218.4490966796875,-1077.8236083984375,-1129.8414306640625,-1054.9833984375,-657.2249145507812,-1274.1446533203125,-1480.0045166015625
315939.3789144809,-647.718017578125,-1215.95458984375,-1075.224609375,-1127.24951171875,-1051.8634033203125,-653.6508178710938,-1271.674072265625,-1477.4080810546875
315939.3829144809,-654.4326782226562,-1223.82177734375,-1082.8310546875,-1134.962890625,-1058.4481201171875,-659.4281616210938,-1279.649658203125,-1485.031494140625
315939.38691448094,-660.3953857421875,-1229.668701171875,-1088.661376953125,-1140.8397216796875,-1064.3758544921875,-665.476318359375,-1285.508056640625,-1490.86376953125
315939.39091448096,-658.127197265625,-1226.5101318359375,-1085.687744140625,-1137.80615234375,-1062.2265625,-663.944580078125,-1282.296630859375,-1487.9361572265625
315939.3949144809,-650.9454345703125,-1218.6219482421875,-1077.9339599609375,-1130.0089111328125,-1055.1116943359375,-657.2514038085938,-1274.412353515625,-1480.249755859375
315939.39891448093,-647.694580078125,-1215.97705078125,-1075.191650390625,-1127.28857421875,-1051.8543701171875,-653.5873413085938,-1271.8114013671875,-1477.4615478515625
315939.40291448095,-654.4601440429688,-1223.9766845703125,-1082.9534912109375,-1135.220703125,-1058.5989990234375,-659.5325927734375,-1279.843505859375,-1485.1993408203125
315939.40691448096,-660.91845703125,-1230.381103515625,-1089.3843994140625,-1141.7694091796875,-1065.0963134765625,-666.1183471679688,-1286.265869140625,-1491.647705078125
315939.4109144809,-659.1893310546875,-1228.228271484375,-1087.2960205078125,-1139.6580810546875,-1063.8397216796875,-665.1785888671875,-1283.9986572265625,-1489.8580322265625
315939.41491448093,-652.2744140625,-1221.1614990234375,-1080.235107421875,-1132.5433349609375,-1057.453369140625,-658.902587890625,-1276.8428955078125,-1483.1658935546875
315939.41891448095,-648.5518798828125,-1217.819580078125,-1076.8343505859375,-1129.1055908203125,-1053.5489501953125,-654.7404174804688,-1273.504150390625,-1479.5777587890625
315939.42291448097,-654.9942016601562,-1225.1697998046875,-1084.0201416015625,-1136.3558349609375,-1059.672119140625,-660.2210083007812,-1281.0330810546875,-1486.583740234375
315939.4269144809,-661.1527709960938,-1231.327880859375,-1090.11669921875,-1142.4249267578125,-1065.8681640625,-666.4640502929688,-1287.211181640625,-1492.768310546875
315939.43091448094,-658.6952514648438,-1227.7811279296875,-1086.7999267578125,-1138.981201171875,-1063.3406982421875,-664.6644897460938,-1283.5091552734375,-1489.375
315939.43491448095,-650.8070678710938,-1219.0107421875,-1078.226318359375,-1130.2701416015625,-1055.3980712890625,-657.3108520507812,-1274.615234375,-1480.7119140625
315939.43891448097,-647.5126953125,-1216.0595703125,-1075.3095703125,-1127.366943359375,-1051.9317626953125,-653.4904174804688,-1271.8824462890625,-1477.6783447265625
315939.4429144809,-654.5895385742188,-1224.281982421875,-1083.32568359375,-1135.45849609375,-1058.876708984375,-659.56103515625,-1280.3551025390625,-1485.7298583984375
315939.44691448094,-661.5394897460938,-1231.6280517578125,-1090.5289306640625,-1142.7596435546875,-1066.10498046875,-666.5479736328125,-1287.7867431640625,-1493.38427734375
315939.45091448096,-659.775390625,-1229.55322265625,-1088.474609375,-1140.708740234375,-1064.8629150390625,-665.4873046875,-1285.659912109375,-1491.83349609375
315939.454914481,-652.5371704101562,-1221.569580078125,-1080.6478271484375,-1132.8370361328125,-1057.733642578125,-658.8511352539062,-1277.5618896484375,-1483.9837646484375
315939.4589144809,-649.0294799804688,-1218.310791015625,-1077.4344482421875,-1129.595703125,-1054.0201416015625,-654.937255859375,-1274.432861328125,-1480.4896240234375
315939.46291448094,-655.648193359375,-1225.963134765625,-1084.8814697265625,-1137.1031494140625,-1060.4644775390625,-660.7021484375,-1282.1651611328125,-1487.8182373046875
315939.46691448096,-661.6868896484375,-1231.8724365234375,-1090.7681884765625,-1143.0484619140625,-1066.4217529296875,-666.7183227539062,-1288.1083984375,-1493.77001953125
315939.470914481,-659.9202880859375,-1229.177001953125,-1088.2767333984375,-1140.4725341796875,-1064.736572265625,-665.6431884765625,-1285.4150390625,-1491.2919921875
315939.47491448093,-652.869384765625,-1221.42919921875,-1080.685791015625,-1132.798583984375,-1057.8370361328125,-659.1903686523438,-1277.52392578125,-1483.6785888671875
315939.47891448095,-649.2942504882812,-1218.375244140625,-1077.5213623046875,-1129.6451416015625,-1054.2584228515625,-655.3114624023438,-1274.29443359375,-1480.36962890625
315939.48291448096,-655.8490600585938,-1226.0531005859375,-1084.98583984375,-1137.18017578125,-1060.665771484375,-660.9874267578125,-1282.11376953125,-1487.7867431640625
315939.486914481,-662.0690307617188,-1232.1842041015625,-1091.118896484375,-1143.36669921875,-1066.765380859375,-667.2374267578125,-1288.290771484375,-1493.9827880859375
315939.49091448094,-659.6954345703125,-1228.766845703125,-1087.9205322265625,-1140.079345703125,-1064.42578125,-665.6461791992188,-1284.7371826171875,-1490.6439208984375
315939.49491448095,-651.8287353515625,-1220.0863037109375,-1079.4178466796875,-1131.462646484375,-1056.60302734375,-658.3570556640625,-1275.97265625,-1482.02490234375
315939.49891448097,-648.2540893554688,-1216.966796875,-1076.2198486328125,-1128.28076171875,-1052.8804931640625,-654.3287353515625,-1272.861572265625,-1478.698486328125
315939.502914481,-654.9342651367188,-1224.9439697265625,-1083.9132080078125,-1136.0899658203125,-1059.5382080078125,-660.1455688476562,-1280.900146484375,-1486.46484375
315939.50691448094,-661.3341674804688,-1231.4542236328125,-1090.34912109375,-1142.621826171875,-1066.06298828125,-666.6848754882812,-1287.3175048828125,-1492.9930419921875
315939.51091448095,-658.685791015625,-1227.8046875,-1086.90380859375,-1139.1260986328125,-1063.41455078125,-664.7289428710938,-1283.53857421875,-1489.4683837890625
315939.51491448097,-651.3471069335938,-1219.8065185546875,-1079.0325927734375,-1131.1708984375,-1056.2188720703125,-657.9498291015625,-1275.490966796875,-1481.630126953125
315939.518914481,-647.8549194335938,-1216.8074951171875,-1075.964111328125,-1128.076416015625,-1052.6427001953125,-654.02099609375,-1272.587890625,-1478.5186767578125
315939.52291448094,-654.7943725585938,-1224.757568359375,-1083.743896484375,-1135.97705078125,-1059.3568115234375,-660.0716552734375,-1280.7393798828125,-1486.1690673828125
315939.52691448096,-661.5189819335938,-1231.5272216796875,-1090.4959716796875,-1142.82958984375,-1066.1195068359375,-666.8577270507812,-1287.493408203125,-1492.9825439453125
315939.530914481,-659.9192504882812,-1229.5697021484375,-1088.6014404296875,-1140.8516845703125,-1064.997802734375,-665.9999389648438,-1285.422607421875,-1491.453369140625
315939.534914481,-652.6980590820312,-1221.81494140625,-1080.95361328125,-1133.0269775390625,-1057.9300537109375,-659.3052978515625,-1277.59033203125,-1483.9412841796875
315939.53891448095,-648.84814453125,-1218.3192138671875,-1077.4598388671875,-1129.501708984375,-1053.873291015625,-654.979736328125,-1274.195068359375,-1480.2822265625
315939.54291448096,-655.2954711914062,-1225.908203125,-1084.8055419921875,-1136.96533203125,-1060.2196044921875,-660.519775390625,-1281.888427734375,-1487.5919189453125
315939.546914481,-661.3826293945312,-1231.7554931640625,-1090.67236328125,-1142.8955078125,-1066.1728515625,-666.639892578125,-1287.727783203125,-1493.38525390625
315939.55091448093,-659.19384765625,-1228.51953125,-1087.6507568359375,-1139.7864990234375,-1063.9876708984375,-665.173583984375,-1284.2969970703125,-1490.2886962890625
315939.55491448095,-651.9766235351562,-1220.49951171875,-1079.825927734375,-1131.828369140625,-1056.81689453125,-658.5458984375,-1276.1925048828125,-1482.3701171875
315939.55891448096,-648.3370361328125,-1217.534912109375,-1076.7344970703125,-1128.7479248046875,-1053.2347412109375,-654.5186157226562,-1273.2877197265625,-1479.2930908203125
315939.562914481,-655.1795654296875,-1225.595947265625,-1084.5107421875,-1136.6845703125,-1060.00537109375,-660.4578247070312,-1281.4981689453125,-1487.1168212890625
315939.56691448094,-661.9166870117188,-1232.493896484375,-1091.3143310546875,-1143.6204833984375,-1066.83984375,-667.1734619140625,-1288.4686279296875,-1494.1611328125
315939.57091448095,-659.8473510742188,-1229.5477294921875,-1088.5469970703125,-1140.7557373046875,-1064.845458984375,-665.7725830078125,-1285.4290771484375,-1491.443359375
315939.5749144809,-652.361328125,-1221.208984375,-1080.3890380859375,-1132.5103759765625,-1057.3798828125,-658.8746337890625,-1276.9703369140625,-1483.1749267578125
315939.5789144809,-648.882080078125,-1218.345703125,-1077.4598388671875,-1129.605224609375,-1053.9566650390625,-655.0416870117188,-1274.2294921875,-1480.1912841796875
315939.58291448094,-655.6127319335938,-1226.38525390625,-1085.2266845703125,-1137.5078125,-1060.67236328125,-660.83251953125,-1282.458984375,-1488.08447265625
315939.58691448095,-661.8616943359375,-1232.665771484375,-1091.4332275390625,-1143.7998046875,-1066.923828125,-667.0985107421875,-1288.658935546875,-1494.409912109375
315939.5909144809,-659.8338623046875,-1229.486328125,-1088.5355224609375,-1140.815185546875,-1064.8289794921875,-665.7730712890625,-1285.3765869140625,-1491.368896484375
315939.5949144809,-652.501220703125,-1221.2149658203125,-1080.4859619140625,-1132.6517333984375,-1057.4473876953125,-658.9979858398438,-1277.040771484375,-1483.1834716796875
315939.59891448094,-648.890625,-1218.2578125,-1077.407470703125,-1129.5491943359375,-1053.86572265625,-654.9547729492188,-1274.2490234375,-1480.183349609375
315939.60291448096,-655.432861328125,-1226.1669921875,-1084.974365234375,-1137.2535400390625,-1060.4224853515625,-660.57373046875,-1282.3370361328125,-1487.9715576171875
315939.6069144809,-661.3511352539062,-1232.1011962890625,-1090.8221435546875,-1143.183837890625,-1066.3602294921875,-666.5899658203125,-1288.0909423828125,-1493.8779296875
315939.61091448093,-659.507080078125,-1229.3538818359375,-1088.2532958984375,-1140.5289306640625,-1064.6231689453125,-665.5053100585938,-1285.145751953125,-1491.2669677734375
315939.61491448095,-651.985595703125,-1220.877197265625,-1080.0093994140625,-1132.1751708984375,-1056.978271484375,-658.493896484375,-1276.6131591796875,-1482.9151611328125
315939.61891448096,-648.4844360351562,-1217.7672119140625,-1076.890380859375,-1129.0301513671875,-1053.3082275390625,-654.5360717773438,-1273.5650634765625,-1479.668701171875
315939.622914481,-655.1680908203125,-1225.58837890625,-1084.4971923828125,-1136.741943359375,-1059.886962890625,-660.3374633789062,-1281.4931640625,-1487.2412109375
315939.62691448093,-661.4425659179688,-1231.6845703125,-1090.599365234375,-1142.8546142578125,-1066.0235595703125,-666.6348876953125,-1287.5863037109375,-1493.2744140625
315939.63091448095,-659.2457885742188,-1228.3272705078125,-1087.4473876953125,-1139.5992431640625,-1063.69287109375,-665.0711669921875,-1284.0811767578125,-1489.991455078125
315939.63491448096,-652.198974609375,-1220.662353515625,-1079.9139404296875,-1131.932861328125,-1056.7904052734375,-658.5548706054688,-1276.3577880859375,-1482.552978515625
315939.638914481,-648.8446044921875,-1217.9190673828125,-1077.0966796875,-1129.0946044921875,-1053.43603515625,-654.7584228515625,-1273.7698974609375,-1479.78466796875
315939.64291448094,-654.9137573242188,-1225.1483154296875,-1084.0810546875,-1136.138916015625,-1059.3623046875,-659.90478515625,-1281.1534423828125,-1486.7919921875
315939.64691448095,-660.7476196289062,-1230.9586181640625,-1089.83154296875,-1141.9598388671875,-1065.1402587890625,-665.733642578125,-1286.910400390625,-1492.6328125
315939.65091448097,-658.67578125,-1228.0465087890625,-1087.0802001953125,-1139.156494140625,-1063.2327880859375,-664.4221801757812,-1283.8128662109375,-1489.8916015625
315939.654914481,-651.58544921875,-1220.2152099609375,-1079.415771484375,-1131.4222412109375,-1056.308837890625,-658.0103149414062,-1275.791748046875,-1482.099853515625
315939.65891448094,-648.0233154296875,-1216.955810546875,-1076.135498046875,-1128.08935546875,-1052.581298828125,-654.1109008789062,-1272.516845703125,-1478.5421142578125
315939.66291448096,-654.38671875,-1224.4197998046875,-1083.3846435546875,-1135.4620361328125,-1058.7943115234375,-659.6174926757812,-1280.0828857421875,-1485.744384765625
315939.666914481,-660.3964233398438,-1230.358154296875,-1089.294921875,-1141.4322509765625,-1064.72802734375,-665.6032104492188,-1286.094482421875,-1491.7530517578125
315939.670914481,-658.0343017578125,-1226.9462890625,-1086.1124267578125,-1138.1229248046875,-1062.3499755859375,-663.9151000976562,-1282.58984375,-1488.5091552734375
315939.67491448094,-650.6771850585938,-1218.8787841796875,-1078.17578125,-1130.1212158203125,-1055.104248046875,-657.1260375976562,-1274.3719482421875,-1480.5555419921875
315939.67891448096,-647.7415161132812,-1216.461181640625,-1075.6927490234375,-1127.665771484375,-1052.1256103515625,-653.7496948242188,-1272.0242919921875,-1477.9781494140625
315939.682914481,-654.4396362304688,-1224.4378662109375,-1083.3970947265625,-1135.5198974609375,-1058.8193359375,-659.570068359375,-1280.0848388671875,-1485.6949462890625
315939.686914481,-660.3873901367188,-1230.5030517578125,-1089.368408203125,-1141.547119140625,-1064.8304443359375,-665.5332641601562,-1286.1390380859375,-1491.81298828125
315939.69091448095,-658.43798828125,-1227.6502685546875,-1086.6954345703125,-1138.7718505859375,-1062.9365234375,-664.2108154296875,-1283.2298583984375,-1489.2181396484375
315939.69491448096,-650.7501220703125,-1219.1695556640625,-1078.3851318359375,-1130.3255615234375,-1055.30908203125,-657.1380004882812,-1274.6016845703125,-1480.8353271484375
315939.698914481,-647.2628784179688,-1216.156005859375,-1075.3011474609375,-1127.1656494140625,-1051.75146484375,-653.2705688476562,-1271.6361083984375,-1477.6348876953125
315939.70291448093,-654.1099243164062,-1223.961669921875,-1082.9444580078125,-1134.94189453125,-1058.3531494140625,-659.1863403320312,-1279.6302490234375,-1485.1768798828125
315939.70691448095,-660.18408203125,-1230.0068359375,-1088.962158203125,-1141.030517578125,-1064.4078369140625,-665.3189697265625,-1285.62744140625,-1491.2540283203125
315939.71091448097,-658.2536010742188,-1227.385498046875,-1086.4921875,-1138.45361328125,-1062.7296142578125,-664.0994262695312,-1282.9195556640625,-1488.92431640625
315939.714914481,-651.2901611328125,-1219.8814697265625,-1079.1015625,-1130.91015625,-1055.9725341796875,-657.685546875,-1275.3560791015625,-1481.6162109375
315939.71891448094,-647.9498291015625,-1217.064697265625,-1076.2293701171875,-1128.0164794921875,-1052.5968017578125,-653.9515380859375,-1272.7152099609375,-1478.6669921875
315939.72291448095,-654.7783813476562,-1225.1922607421875,-1084.10107421875,-1136.1544189453125,-1059.4107666015625,-659.8158569335938,-1281.093994140625,-1486.692138671875
315939.7269144809,-661.3006591796875,-1232.020751953125,-1090.792236328125,-1142.91455078125,-1066.15087890625,-666.4285888671875,-1287.882080078125,-1493.642578125
315939.7309144809,-659.7388916015625,-1229.712158203125,-1088.6119384765625,-1140.7247314453125,-1064.737548828125,-665.4773559570312,-1285.531494140625,-1491.68310546875
315939.73491448094,-651.7802734375,-1220.7843017578125,-1079.950927734375,-1131.8653564453125,-1056.732421875,-658.1831665039062,-1276.457275390625,-1482.8621826171875
315939.73891448096,-648.4624633789062,-1217.814697265625,-1076.98974609375,-1128.850830078125,-1053.2672119140625,-654.4926147460938,-1273.548583984375,-1479.687255859375
315939.7429144809,-655.2365112304688,-1225.6943359375,-1084.6346435546875,-1136.6180419921875,-1059.8544921875,-660.2789916992188,-1281.59619140625,-1487.2926025390625
315939.74691448093,-661.0383911132812,-1231.180908203125,-1090.1732177734375,-1142.248046875,-1065.4559326171875,-666.0843505859375,-1287.0982666015625,-1492.725830078125
315939.75091448094,-658.018798828125,-1226.92236328125,-1086.1873779296875,-1138.074462890625,-1062.301025390625,-663.7886962890625,-1282.7216796875,-1488.5506591796875
315939.75491448096,-650.91845703125,-1218.9267578125,-1078.382080078125,-1130.037353515625,-1055.191162109375,-657.2299194335938,-1274.67919921875,-1480.62841796875
315939.7589144809,-647.4982299804688,-1215.97509765625,-1075.3470458984375,-1126.9942626953125,-1051.718017578125,-653.384521484375,-1271.826904296875,-1477.521484375
315939.76291448093,-653.7327270507812,-1223.3597412109375,-1082.419921875,-1134.1650390625,-1057.8555908203125,-658.740234375,-1279.1805419921875,-1484.5748291015625
315939.76691448095,-659.68994140625,-1229.218017578125,-1088.229736328125,-1140.0418701171875,-1063.77783203125,-664.7518920898438,-1284.972900390625,-1490.462646484375
315939.77091448096,-657.3648071289062,-1225.8896484375,-1085.1402587890625,-1136.900390625,-1061.53662109375,-663.1561889648438,-1281.6160888671875,-1487.3651123046875
315939.7749144809,-649.9132690429688,-1217.5478515625,-1076.981201171875,-1128.71142578125,-1054.090576171875,-656.316162109375,-1273.1873779296875,-1479.083251953125
315939.77891448094,-646.9171752929688,-1215.0987548828125,-1074.4317626953125,-1126.245849609375,-1051.0665283203125,-652.8823852539062,-1270.790771484375,-1476.518798828125
315939.78291448095,-653.9470825195312,-1223.6868896484375,-1082.7021484375,-1134.760498046875,-1058.3116455078125,-659.0399780273438,-1279.605224609375,-1485.0814208984375
315939.78691448097,-660.24951171875,-1230.357666015625,-1089.2274169921875,-1141.4251708984375,-1064.9158935546875,-665.39990234375,-1286.318359375,-1491.907958984375
315939.7909144809,-658.48291015625,-1227.71875,-1086.75048828125,-1138.854736328125,-1063.2442626953125,-664.25830078125,-1283.6314697265625,-1489.473388671875
315939.79491448094,-651.5694580078125,-1219.908935546875,-1079.1385498046875,-1131.1968994140625,-1056.3048095703125,-657.9148559570312,-1275.7008056640625,-1481.7420654296875
315939.7989144809,-647.9473266601562,-1216.662109375,-1075.859619140625,-1127.946533203125,-1052.5147705078125,-653.8970947265625,-1272.494873046875,-1478.2908935546875
315939.8029144809,-654.2887573242188,-1224.069091796875,-1083.11083984375,-1135.3475341796875,-1058.7169189453125,-659.3662109375,-1280.1282958984375,-1485.4805908203125
315939.8069144809,-660.6212158203125,-1230.7353515625,-1089.6146240234375,-1141.868896484375,-1065.28515625,-665.83056640625,-1286.685546875,-1492.1851806640625
315939.81091448094,-658.2061767578125,-1227.4619140625,-1086.527099609375,-1138.617919921875,-1062.9884033203125,-664.1134033203125,-1283.2867431640625,-1489.1181640625
315939.8149144809,-650.6456909179688,-1219.0596923828125,-1078.317138671875,-1130.3121337890625,-1055.4300537109375,-657.0725708007812,-1274.7926025390625,-1480.8587646484375
315939.8189144809,-647.3408203125,-1216.16796875,-1075.3560791015625,-1127.346923828125,-1051.9732666015625,-653.3370361328125,-1271.9378662109375,-1477.7843017578125
315939.82291448093,-653.7601928710938,-1223.79931640625,-1082.7176513671875,-1134.7825927734375,-1058.2967529296875,-658.8536376953125,-1279.692626953125,-1485.1568603515625
315939.8269144809,-660.2205200195312,-1230.28515625,-1089.1455078125,-1141.2723388671875,-1064.758056640625,-665.33544921875,-1286.21044921875,-1491.6346435546875
315939.8309144809,-658.126220703125,-1227.4444580078125,-1086.4442138671875,-1138.4820556640625,-1062.864501953125,-663.967041015625,-1283.28076171875,-1489.05078125
315939.8349144809,-651.4485473632812,-1220.5494384765625,-1079.6031494140625,-1131.6884765625,-1056.66552734375,-657.87939453125,-1276.3358154296875,-1482.616943359375
315939.83891448093,-648.558349609375,-1218.7149658203125,-1077.5128173828125,-1129.6861572265625,-1054.078125,-654.5455932617188,-1274.586181640625,-1480.88232421875
315939.8429144809,-655.4718627929688,-1227.1871337890625,-1085.6024169921875,-1137.916015625,-1061.1119384765625,-660.476318359375,-1283.2373046875,-1489.3045654296875
315939.8469144809,-661.7523193359375,-1233.6175537109375,-1091.9603271484375,-1144.2684326171875,-1067.561767578125,-666.9031982421875,-1289.7296142578125,-1495.8363037109375
315939.8509144809,-659.4880981445312,-1230.0098876953125,-1088.6839599609375,-1140.8736572265625,-1065.0887451171875,-665.323974609375,-1286.0361328125,-1492.30517578125
315939.85491448094,-652.0555419921875,-1221.456787109375,-1080.3990478515625,-1132.5137939453125,-1057.476318359375,-658.4134521484375,-1277.3709716796875,-1483.782470703125
315939.8589144809,-648.8191528320312,-1218.831298828125,-1077.65869140625,-1129.76708984375,-1054.2664794921875,-654.7479248046875,-1274.853515625,-1481.07861328125
315939.8629144809,-655.0571899414062,-1226.3443603515625,-1084.94140625,-1137.1826171875,-1060.5048828125,-660.119140625,-1282.5623779296875,-1488.4207763671875
315939.8669144809,-661.4170532226562,-1232.581787109375,-1091.160888671875,-1143.4696044921875,-1066.7894287109375,-666.4949951171875,-1288.785400390625,-1494.6092529296875
315939.87091448094,-658.8536376953125,-1228.88623046875,-1087.7376708984375,-1139.8714599609375,-1064.197509765625,-664.6549682617188,-1285.033447265625,-1491.065185546875
315939.87491448096,-651.7133178710938,-1220.7633056640625,-1079.847412109375,-1131.8887939453125,-1056.980224609375,-658.0782470703125,-1276.8109130859375,-1483.0211181640625
315939.8789144809,-648.0562744140625,-1217.5184326171875,-1076.5426025390625,-1128.5760498046875,-1053.1943359375,-653.9924926757812,-1273.635009765625,-1479.6187744140625
315939.8829144809,-654.570068359375,-1225.0538330078125,-1083.8807373046875,-1136.0001220703125,-1059.523681640625,-659.6190185546875,-1281.3818359375,-1486.89697265625
315939.88691448094,-661.1033325195312,-1231.51220703125,-1090.3155517578125,-1142.5198974609375,-1066.0159912109375,-666.252685546875,-1287.82666015625,-1493.3603515625
315939.89091448096,-658.5084228515625,-1227.80859375,-1086.8663330078125,-1139.001708984375,-1063.3726806640625,-664.398193359375,-1284.003662109375,-1489.773681640625
315939.8949144809,-651.1158447265625,-1219.6785888671875,-1078.9132080078125,-1130.9605712890625,-1056.0625,-657.5576782226562,-1275.7952880859375,-1481.83349609375
315939.89891448093,-647.4877319335938,-1216.803955078125,-1075.8841552734375,-1127.926513671875,-1052.52783203125,-653.5518798828125,-1272.9305419921875,-1478.8643798828125
315939.90291448095,-654.2877807617188,-1224.81005859375,-1083.6419677734375,-1135.7996826171875,-1059.241455078125,-659.47412109375,-1281.0960693359375,-1486.6466064453125
315939.90691448096,-660.713623046875,-1231.179931640625,-1090.0103759765625,-1142.27001953125,-1065.6134033203125,-665.9019775390625,-1287.5289306640625,-1493.0849609375
315939.9109144809,-659.181884765625,-1228.6884765625,-1087.7720947265625,-1140.0223388671875,-1064.1485595703125,-664.9697265625,-1285.1273193359375,-1490.8897705078125
315939.91491448093,-651.6323852539062,-1220.5234375,-1079.7100830078125,-1131.8433837890625,-1056.7899169921875,-658.0332641601562,-1276.8109130859375,-1482.879150390625
