lsl_time,CZ,C3,CPZ3,FC4,FC3,CPZ4,C4,CPZ
304928.6721936385,0.560470700263977,0.4707435965538025,-0.1900041103363037,0.9623121023178101,2.662058115005493,1.31254243850708,0.266585111618042,2.1842048168182373
304928.67619363853,0.2858032286167145,0.06682629138231277,0.029687559232115746,1.0967392921447754,0.7157667279243469,-0.0905941054224968,1.4225728511810303,1.5900906324386597
304928.6801936385,0.3969406485557556,0.004132905043661594,0.29117366671562195,1.5791646242141724,0.3528291881084442,0.4229975640773773,2.330082893371582,1.1968926191329956
304928.6841936385,0.4684184789657593,-0.0780978798866272,0.5897331237792969,1.8628268241882324,-0.1796443611383438,1.1314996480941772,2.8555824756622314,0.43733370304107666
304928.6881936385,0.532034695148468,-0.08780823647975922,0.6732051968574524,2.1504664421081543,-0.23250411450862885,1.2804911136627197,3.3836090564727783,0.41584739089012146
304928.69219363853,0.24755382537841797,-0.12497388571500778,0.7238787412643433,0.5081133842468262,0.010520566254854202,1.5007398128509521,0.08801636844873428,1.0743188858032227
304928.6961936385,0.32609352469444275,-0.13216754794120789,1.1494646072387695,0.32660776376724243,0.7175690531730652,1.6291998624801636,0.1091802641749382,2.1419782638549805
304928.7001936385,0.36926737427711487,-0.11135086417198181,1.4906269311904907,0.035057857632637024,1.5415139198303223,1.4270251989364624,0.31378018856048584,2.94818115234375
304928.7041936385,0.41934528946876526,-0.12939941883087158,1.709856390953064,0.02487662248313427,1.7701420783996582,1.6486382484436035,0.2220650166273117,3.458733320236206
304928.70819363854,0.1779337227344513,0.04211429879069328,0.7369291186332703,-0.08621220290660858,1.4652009010314941,-0.2939188778400421,1.5848058462142944,-0.0006915091071277857
304928.7121936385,0.2193121612071991,0.17997197806835175,0.8128546476364136,0.21240103244781494,1.6153924465179443,0.17039543390274048,1.886316180229187,0.45737606287002563
304928.7161936385,0.23262695968151093,0.33256959915161133,0.7529169321060181,0.5918323993682861,1.4150481224060059,0.8098230361938477,1.7811208963394165,1.2097423076629639
304928.7201936385,0.2632417380809784,0.38083693385124207,0.851931095123291,0.6701260209083557,1.6215959787368774,0.8871199488639832,2.0919101238250732,1.2928152084350586
304928.72419363854,0.08985938131809235,0.4579510986804962,-0.017260704189538956,1.169815182685852,-0.16973817348480225,1.7699921131134033,-0.18994246423244476,2.27116322517395
304928.7281936385,0.11957629770040512,0.7518185377120972,-0.1444917619228363,1.9313335418701172,-0.36618778109550476,2.6832594871520996,0.5376700758934021,2.694798707962036
304928.7321936385,0.1379975527524948,0.8624784350395203,-0.16491998732089996,2.2330286502838135,-0.46819138526916504,3.1342954635620117,0.48329395055770874,3.204472541809082
304928.7361936385,0.028213320299983025,0.5471470355987549,-0.15939787030220032,0.974306583404541,0.43893811106681824,0.4171781539916992,1.7375417947769165,0.041034359484910965
304928.7401936385,0.015755122527480125,0.7982257008552551,-0.06918040663003922,0.9097093343734741,1.2069072723388672,0.24849329888820648,2.0812041759490967,1.0668092966079712
304928.7441936385,-0.004070089664310217,0.9701611399650574,0.08247605711221695,0.6282703876495361,1.9410074949264526,0.030041374266147614,1.96488618850708,2.3187880516052246
304928.7481936385,-0.004430690780282021,1.110912561416626,0.08902279287576675,0.7073150277137756,2.2631726264953613,0.0018638208275660872,2.289184331893921,2.639770269393921
304928.75219363853,-0.0234992578625679,0.5194043517112732,0.4302772581577301,-0.22652997076511383,1.2576006650924683,1.1156034469604492,-0.021257687360048294,3.5902762413024902
304928.7561936385,-0.05247970670461655,0.6399729251861572,0.8628755211830139,-0.16909730434417725,1.0645097494125366,1.9652055501937866,0.639907717704773,2.262317657470703
304928.7601936385,-0.07999499142169952,0.675397515296936,1.2684354782104492,-0.03873559460043907,0.6306636929512024,2.5606675148010254,1.5302178859710693,0.38140928745269775
304928.7641936385,-0.09213349223136902,0.7656226754188538,1.4501620531082153,-0.03764265775680542,0.6826913356781006,3.008788585662842,1.6854246854782104,0.055970631539821625
304928.76819363853,-0.047467220574617386,0.23399125039577484,0.9332967400550842,0.530906617641449,-0.3093378245830536,0.5548778176307678,1.8232131004333496,1.2548705339431763
304928.7721936385,-0.06552252918481827,0.21422070264816284,1.1687138080596924,1.201303243637085,0.11619831621646881,0.10951380431652069,1.5923820734024048,2.2392563819885254
304928.7761936385,-0.07871416211128235,0.1497110277414322,1.2420727014541626,1.8591583967208862,0.7074326276779175,-0.43165552616119385,0.8716122508049011,2.9220175743103027
304928.7801936385,-0.08841857314109802,0.16362440586090088,1.411181092262268,2.1391677856445312,0.8077057600021362,-0.5734208226203918,0.9943587183952332,3.438807249069214
304928.78419363854,-0.025159543380141258,-0.04627903550863266,0.3543870449066162,1.0143121480941772,1.2967824935913086,0.7332367300987244,-0.10349661856889725,-0.04889173060655594
304928.7881936385,-0.018613301217556,-0.11172480881214142,0.28411489725112915,1.0595741271972656,1.7969788312911987,1.743983268737793,1.0443814992904663,0.5965558290481567
304928.7921936385,-0.00612979382276535,-0.166627436876297,0.14560967683792114,0.9110947251319885,2.0568161010742188,2.6776111125946045,2.389897108078003,1.5515214204788208
304928.7961936385,-0.006538175046443939,-0.1984805166721344,0.15663160383701324,1.0303446054458618,2.3959991931915283,3.1414995193481445,2.7575724124908447,1.6678824424743652
304928.80019363854,0.026653021574020386,-0.0711321234703064,-0.1519496887922287,-0.08603928238153458,0.3020120859146118,0.7976281642913818,1.524573564529419,2.0235707759857178
304928.8041936385,0.06661390513181686,-0.020606691017746925,-0.09489758312702179,-0.140294149518013,0.03527460992336273,0.47817352414131165,0.9461227059364319,1.488546371459961
304928.8081936385,0.10748809576034546,0.05671445280313492,-0.007154474966228008,-0.1325058788061142,-0.25904610753059387,-0.015475815162062645,0.05330386385321617,0.4699532687664032
304928.8121936385,0.12273489683866501,0.061763834208250046,-0.0023516095243394375,-0.17956681549549103,-0.3780966103076935,-0.04503800719976425,-0.02657284028828144,0.46009448170661926
304928.81619363854,0.10807241499423981,0.20151770114898682,0.2971673309803009,0.39934399724006653,0.5097097158432007,0.6087090969085693,0.6277367472648621,0.6041949391365051
304928.8201936385,0.18328531086444855,0.41325968503952026,0.7009793519973755,0.951453447341919,1.2449977397918701,1.670801043510437,1.8873555660247803,1.7512962818145752
304928.8241936385,0.24881108105182648,0.617172122001648,1.10906982421875,1.5000648498535156,1.9393630027770996,2.743490695953369,3.0960042476654053,2.7685599327087402
304928.82819363853,0.28347763419151306,0.7035959362983704,1.264273762702942,1.7206358909606934,2.2590224742889404,3.1437084674835205,3.6455137729644775,3.252542018890381
304928.83219363855,0.19258104264736176,0.5136747360229492,0.8395513296127319,1.1891138553619385,1.2372937202453613,1.1056709289550781,0.6428765058517456,0.2739676237106323
304928.8361936385,0.2973979711532593,0.7684019207954407,1.1530349254608154,1.2951984405517578,1.0369609594345093,0.5463749170303345,0.26203685998916626,0.4525124132633209
304928.8401936385,0.38022473454475403,0.967012345790863,1.3386361598968506,1.1801602840423584,0.5394564270973206,-0.27418252825737,-0.10396654903888702,0.8092169761657715
304928.84419363854,0.43216684460639954,1.095285177230835,1.5233100652694702,1.338364601135254,0.6020135879516602,-0.3547057509422302,-0.255322128534317,0.7991361618041992
304928.84819363855,0.2575412392616272,0.5597184896469116,0.4985174834728241,-0.028520427644252777,-0.3972960114479065,0.21752038598060608,1.4755574464797974,2.3547592163085938
304928.8521936385,0.3824223279953003,0.7277430295944214,0.4253402054309845,-0.21523678302764893,0.050029173493385315,1.2305985689163208,2.361734390258789,2.0549774169921875
304928.8561936385,0.4767151176929474,0.8052263259887695,0.2503740191459656,-0.3876481354236603,0.6762828230857849,2.247007131576538,2.888063907623291,1.1291424036026
304928.86019363854,0.5418567657470703,0.9170450568199158,0.2727842926979065,-0.46299654245376587,0.7853468656539917,2.656583547592163,3.3818728923797607,1.2840913534164429
304928.86419363855,0.3214556872844696,0.31003621220588684,-0.12311788648366928,0.3990817666053772,1.516532301902771,1.0502873659133911,-0.09540565311908722,0.8593794107437134
304928.8681936385,0.482753723859787,0.4044111669063568,-0.1757652759552002,0.8312047719955444,2.383025884628296,1.0846060514450073,-0.4929545521736145,1.9395828247070312
304928.8721936385,0.5551131963729858,0.46818169951438904,-0.20598235726356506,0.9445852637290955,2.7586135864257812,1.2649997472763062,-0.6492778062820435,2.1736114025115967
304928.87619363854,0.28779712319374084,0.07966545969247818,0.02982441708445549,1.0305781364440918,0.7766226530075073,-0.25050726532936096,1.4142481088638306,4.328306674957275
304928.8801936385,0.390473872423172,0.012128940783441067,0.27420148253440857,1.5057157278060913,0.5472644567489624,0.3166748285293579,2.3827970027923584,3.0009377002716064
304928.8841936385,0.454020619392395,-0.08353129029273987,0.5623595714569092,1.8041143417358398,0.19504474103450775,1.1179879903793335,3.0124549865722656,0.8931885957717896
304928.88819363853,0.5156437158584595,-0.09782350808382034,0.6413615345954895,2.0663132667541504,0.18308204412460327,1.2765476703643799,3.521026849746704,0.713905930519104
304928.89219363854,0.2500065863132477,-0.12235818058252335,0.7205041646957397,0.5161714553833008,0.027165280655026436,1.749201774597168,0.04446107894182205,1.1303014755249023
304928.8961936385,0.3290213644504547,-0.13815173506736755,1.1512736082077026,0.29292431473731995,0.6397205591201782,1.831790566444397,0.1999848186969757,2.3486266136169434
304928.9001936385,0.37063780426979065,-0.1205698624253273,1.4996795654296875,-0.03939715027809143,1.3515392541885376,1.4840233325958252,0.5378973484039307,3.239384412765503
304928.90419363853,0.4212246835231781,-0.14300431311130524,1.7069646120071411,-0.0740431547164917,1.5683364868164062,1.712923288345337,0.5386221408843994,3.919872760772705
304928.90819363855,0.1770242154598236,0.04811575636267662,0.7968764305114746,-0.1053236648440361,1.4542900323867798,-0.14875361323356628,3.1344776153564453,-0.27585747838020325
304928.9121936385,0.21916307508945465,0.18170632421970367,0.8653053045272827,0.17253459990024567,1.6179835796356201,0.30745989084243774,4.006895065307617,0.1542772501707077
304928.9161936385,0.23307158052921295,0.32829684019088745,0.7803544998168945,0.560696005821228,1.4410645961761475,0.9371367692947388,3.728764772415161,0.9899846911430359
304928.92019363854,0.2638908326625824,0.37409287691116333,0.8825926780700684,0.6283124089241028,1.6510165929794312,1.025753378868103,4.450139045715332,1.0173003673553467
304928.92419363855,0.09224331378936768,0.38184264302253723,0.08055876195430756,0.9904000163078308,-0.15903641283512115,1.5795509815216064,-0.31968000531196594,2.3859262466430664
304928.9281936385,0.10116881132125854,0.6277077198028564,-0.01752340979874134,1.4798957109451294,-0.1205492913722992,1.8984131813049316,0.4907630383968353,1.9336209297180176
304928.9321936385,0.09431733191013336,0.8336320519447327,-0.12731777131557465,1.8253169059753418,0.041043445467948914,1.8584390878677368,1.5909111499786377,0.8496606945991516
304928.93619363854,0.10592267662286758,0.9489853382110596,-0.1596185266971588,2.0819098949432373,0.01043025217950344,2.1726317405700684,1.7981032133102417,0.9225534200668335
304928.94019363855,0.014392394572496414,0.5663840770721436,-0.10374119132757187,0.6640128493309021,1.0244868993759155,-0.028080033138394356,1.9266518354415894,0.2257770150899887
304928.9441936385,-0.0011595600517466664,0.8061074614524841,0.09075143933296204,0.491690993309021,1.8281736373901367,0.18442222476005554,1.6738643646240234,1.6179512739181519
304928.9481936385,-0.023952839896082878,0.9644253849983215,0.3485969603061676,0.17851777374744415,2.4800045490264893,0.5354308485984802,0.9672952890396118,2.97691011428833
304928.95219363854,-0.02670278772711754,1.103868842124939,0.4003930389881134,0.1789652705192566,2.861955404281616,0.5417380332946777,1.0588608980178833,3.5197134017944336
304928.95619363856,-0.03462071716785431,0.46161195635795593,0.6139416098594666,-0.2770644426345825,0.7722882628440857,1.600060224533081,-0.20938828587532043,0.44844865798950195
304928.9601936385,-0.061982110142707825,0.5511435866355896,1.0425442457199097,-0.04542790725827217,0.34729424118995667,2.0675809383392334,0.9528243541717529,0.23691917955875397
304928.96419363853,-0.08624743670225143,0.5598729252815247,1.389258861541748,0.30147644877433777,-0.24726718664169312,2.135936737060547,2.2444701194763184,0.19105812907218933
304928.96819363855,-0.09860984236001968,0.6356493234634399,1.5942070484161377,0.3378550410270691,-0.3309970200061798,2.4714431762695312,2.653406858444214,0.011556304059922695
304928.97219363856,-0.04606851562857628,0.15262316167354584,0.8367946147918701,0.8874608278274536,-0.0069776964373886585,-0.09759534150362015,1.4239168167114258,2.1609013080596924
304928.9761936385,-0.06208166480064392,0.10792545974254608,0.9718730449676514,1.429384708404541,0.6687639355659485,-0.07823014259338379,0.9606189131736755,2.1980392932891846
304928.98019363853,-0.06874263286590576,0.030883383005857468,0.9588841795921326,1.8424581289291382,1.455675482749939,0.11488174647092819,0.2682078778743744,1.6954553127288818
304928.98419363855,-0.07942374050617218,0.027267690747976303,1.0836210250854492,2.099919080734253,1.676673173904419,0.0800749659538269,0.21104291081428528,1.9367252588272095
304928.98819363856,-0.018722081556916237,-0.08341852575540543,0.16065526008605957,0.8309087157249451,1.4926809072494507,1.5336852073669434,0.8076497316360474,-0.1852889508008957
304928.9921936385,-0.005089694634079933,-0.12306872755289078,0.03752604126930237,0.7175864577293396,1.5704411268234253,2.131971597671509,2.0759592056274414,1.1805078983306885
304928.99619363854,0.012743399478495121,-0.14755889773368835,-0.11578229069709778,0.43865254521369934,1.3230713605880737,2.4054834842681885,3.2745888233184814,2.7586112022399902
304929.00019363855,0.015093403868377209,-0.16414359211921692,-0.14767828583717346,0.4812586009502411,1.495253324508667,2.8019723892211914,3.8271830081939697,3.219324827194214
304929.00419363857,0.046708863228559494,-0.005308511201292276,-0.1272515207529068,-0.24603356420993805,-0.22633610665798187,-0.007919585332274437,0.48361238837242126,1.0345193147659302
304929.0081936385,0.09549302607774734,0.08270635455846786,0.006018135696649551,-0.142075315117836,-0.2023797482252121,-0.15425041317939758,0.19191348552703857,0.6860234141349792
304929.01219363854,0.14268310368061066,0.18770281970500946,0.18364499509334564,0.06389035284519196,-0.041463810950517654,-0.1451810747385025,-0.011964266188442707,0.20011690258979797
304929.01619363856,0.1624646633863449,0.2123437523841858,0.20310324430465698,0.04890858754515648,-0.08267340809106827,-0.24927622079849243,-0.17305704951286316,0.1588897556066513
304929.0201936386,0.15292170643806458,0.3615010380744934,0.6029617786407471,0.9405140280723572,1.2194637060165405,1.5426560640335083,1.9630812406539917,1.97544264793396
304929.0241936385,0.2467270940542221,0.612650990486145,1.03802490234375,1.6571235656738281,2.1649458408355713,2.6269657611846924,3.310197591781616,3.092050790786743
304929.02819363854,0.2833513617515564,0.7004022002220154,1.1895642280578613,1.8963321447372437,2.4648220539093018,3.076266288757324,3.888061285018921,3.649829864501953
304929.03219363856,0.19180110096931458,0.49994662404060364,0.8636018633842468,1.111955165863037,1.118859052658081,1.107907772064209,0.66800457239151,0.500895619392395
304929.0361936385,0.29963254928588867,0.7701947689056396,1.1800179481506348,1.282877802848816,0.9847634434700012,0.590241551399231,0.32911157608032227,0.49968063831329346
304929.04019363853,0.3865676820278168,0.9799264669418335,1.3587614297866821,1.2091262340545654,0.5913340449333191,-0.18233907222747803,-0.033935513347387314,0.7519021034240723
304929.04419363855,0.44004273414611816,1.110337495803833,1.5364285707473755,1.3785187005996704,0.6519735455513,-0.2502157986164093,-0.13965314626693726,0.6908262968063354
304929.04819363856,0.2564716339111328,0.5836246013641357,0.48528575897216797,0.0316801518201828,-0.2315399944782257,0.43550413846969604,3.0133914947509766,2.1214873790740967
304929.0521936385,0.37790361046791077,0.740357518196106,0.4278365969657898,-0.09977570921182632,0.2044299989938736,1.3330765962600708,3.8951900005340576,1.7393968105316162
304929.05619363853,0.46613964438438416,0.8084321022033691,0.27496138215065,-0.20221854746341705,0.7688236832618713,2.240684986114502,3.933945417404175,0.7586249709129333
304929.06019363855,0.5296255946159363,0.9119968414306641,0.2987150549888611,-0.282484233379364,0.8752575516700745,2.6107735633850098,4.657633304595947,0.9091916084289551
304929.06419363857,0.2927395701408386,0.3215606212615967,-0.16271810233592987,0.22706760466098785,1.376412272453308,1.2706135511398315,0.1475963592529297,0.3775741755962372
304929.0681936385,0.4126163125038147,0.333554744720459,-0.18158817291259766,0.7545475363731384,1.7911478281021118,0.8962951302528381,0.3607326149940491,1.859298586845398
304929.07219363854,0.4948689937591553,0.2859382927417755,-0.16421984136104584,1.2982228994369507,1.975332260131836,0.27383002638816833,0.7162327766418457,3.4200034141540527
304929.07619363855,0.5609758496284485,0.3212078809738159,-0.1821894496679306,1.5058257579803467,2.2458014488220215,0.24187587201595306,0.7102576494216919,4.024721622467041
304929.08019363857,0.3770705759525299,0.008294337429106236,0.30146196484565735,1.4525771141052246,0.2673952281475067,0.11604011803865433,2.4783480167388916,0.973098874092102
304929.0841936385,0.4242268204689026,0.01533343456685543,0.3235407769680023,1.6422595977783203,0.3466261625289917,0.046717964112758636,2.78299880027771,1.1968661546707153
304929.08819363854,0.35196900367736816,-0.1617143750190735,0.7941169738769531,1.029258131980896,-0.3238404095172882,2.1444199085235596,1.0437750816345215,0.114239402115345
304929.0921936385,0.39657193422317505,-0.17942292988300323,0.8709105253219604,1.1852192878723145,-0.349874347448349,2.36887264251709,1.2614814043045044,0.03617427125573158
304929.0961936385,0.2340051829814911,-0.10512664914131165,0.8483044505119324,0.17658650875091553,0.39705508947372437,1.3909416198730469,-0.24291874468326569,2.27978777885437
304929.1001936385,0.3031094968318939,-0.08348176628351212,1.1801282167434692,-0.02148469351232052,1.2570645809173584,1.0433961153030396,0.6693944334983826,2.4780054092407227
304929.1041936385,0.33808451890945435,-0.02902838960289955,1.3828788995742798,-0.24666821956634521,2.1558785438537598,0.35003024339675903,1.811078667640686,2.055345296859741
304929.1081936385,0.38361454010009766,-0.03742610663175583,1.5855978727340698,-0.3070627748966217,2.452160120010376,0.37111809849739075,2.0522103309631348,2.3605120182037354
304929.1121936385,0.15596403181552887,0.11963236331939697,0.6009401082992554,0.030936747789382935,1.115742564201355,0.0325871966779232,1.7161779403686523,0.1951267123222351
304929.1161936385,0.18867239356040955,0.29840216040611267,0.5837838053703308,0.5512678027153015,0.9270447492599487,0.8972799777984619,1.2041693925857544,1.3337435722351074
304929.1201936385,0.1960655003786087,0.4814043343067169,0.4383138418197632,1.133486032485962,0.46092692017555237,1.9006059169769287,0.2341536283493042,2.6381428241729736
304929.1241936385,0.22195324301719666,0.5494329929351807,0.4941432476043701,1.301649570465088,0.5258873701095581,2.1732635498046875,0.26130059361457825,3.055426836013794
304929.1281936385,0.07145877927541733,0.44874894618988037,-0.01928291656076908,1.1974579095840454,-0.34569817781448364,1.7142077684402466,-0.07017657905817032,1.264172911643982
304929.1321936385,0.06953570246696472,0.6935495734214783,-0.08718443661928177,1.5278375148773193,0.102587029337883,1.4848198890686035,1.0884169340133667,0.595615804195404
304929.1361936385,0.0534890741109848,0.8839502930641174,-0.15385597944259644,1.6305110454559326,0.7182576656341553,0.8596269488334656,2.365225076675415,-0.3188205361366272
304929.1401936385,0.059558968991041183,1.007290244102478,-0.1833580583333969,1.8532207012176514,0.8186071515083313,0.9452112317085266,2.755072593688965,-0.5000154972076416
304929.1441936385,0.0015089244116097689,0.5989139080047607,0.03581900894641876,0.343325138092041,1.3811416625976562,-0.08506378531455994,1.1477421522140503,1.4528495073318481
304929.1481936385,-0.01526911836117506,0.8036895394325256,0.34202656149864197,0.13191454112529755,1.9098283052444458,0.7153164148330688,0.7065890431404114,2.5004079341888428
304929.1521936385,-0.03445052728056908,0.9167209267616272,0.6841300129890442,-0.143188938498497,2.1521565914154053,1.7001336812973022,0.12870696187019348,3.3055856227874756
304929.1561936385,-0.04018344357609749,1.0402718782424927,0.7835819125175476,-0.2059302031993866,2.47753643989563,1.9215261936187744,-0.011584794148802757,3.789583444595337
304929.1601936385,-0.054075196385383606,0.40882372856140137,0.8799314498901367,0.04435000941157341,0.11487718671560287,1.617544174194336,1.3411391973495483,-0.17864251136779785
304929.1641936385,-0.08718858659267426,0.5483247637748718,1.3711938858032227,0.30409783124923706,-0.0875653624534607,2.0365207195281982,2.6306662559509277,0.0060400995425879955
304929.1681936385,-0.10107947885990143,0.6335842609405518,1.575594425201416,0.3378000855445862,-0.12092021107673645,2.3581199645996094,3.070207118988037,-0.17886821925640106
304929.1721936385,-0.04799181595444679,0.1424088329076767,0.8195776343345642,0.8871697187423706,-0.058969639241695404,-0.018468188121914864,1.407268762588501,2.026995897293091
304929.1761936385,-0.06412927806377411,0.10133389383554459,0.9621601104736328,1.5191609859466553,0.6691967844963074,0.03873198851943016,0.9083346724510193,2.03816819190979
304929.1801936385,-0.07016503810882568,0.033817604184150696,0.9648522734642029,2.0318400859832764,1.5207254886627197,0.22962641716003418,0.2108493447303772,1.527437686920166
304929.1841936385,-0.08067107945680618,0.02962517738342285,1.0997453927993774,2.3307831287384033,1.7409999370574951,0.21225331723690033,0.09942666441202164,1.7785074710845947
304929.1881936385,-0.019656624644994736,-0.09239234775304794,0.1778491735458374,0.8168025016784668,1.4138405323028564,1.569082498550415,1.5053809881210327,0.171676367521286
304929.1921936385,-0.007796805817633867,-0.12441295385360718,0.06174785643815994,0.6746089458465576,1.5181227922439575,2.2395241260528564,3.2162294387817383,1.5249028205871582
304929.1961936385,0.010034902952611446,-0.1422269493341446,-0.08996114879846573,0.35939326882362366,1.3351722955703735,2.5422043800354004,4.42976188659668,3.1604886054992676
304929.2001936385,0.012083773501217365,-0.1604858636856079,-0.1179506853222847,0.39134374260902405,1.5364573001861572,2.972978353500366,5.389479637145996,3.5928595066070557
304929.2041936385,0.04833272844552994,-0.02782226726412773,-0.1480793058872223,-0.21387571096420288,-0.19197387993335724,0.19884821772575378,0.6101576089859009,0.9540448188781738
304929.2081936385,0.09727860242128372,0.07316071540117264,-0.0009096007561311126,-0.1384182870388031,-0.09320888668298721,0.031694866716861725,0.4222518801689148,0.4096112549304962
304929.2121936385,0.1442984789609909,0.194806769490242,0.1946527063846588,0.04722804203629494,0.11844808608293533,-0.08825600147247314,0.1823599487543106,-0.15783829987049103
304929.2161936385,0.16452352702617645,0.22350625693798065,0.22339320182800293,0.03898008167743683,0.12873849272727966,-0.19582226872444153,0.16209693253040314,-0.4098759591579437
304929.2201936385,0.1288219541311264,0.29197925329208374,0.4984912872314453,0.7359156608581543,0.954174280166626,1.2067373991012573,1.6360085010528564,1.6836140155792236
304929.2241936385,0.21333546936511993,0.5290852785110474,0.8927825689315796,1.3245986700057983,1.6044542789459229,1.9826253652572632,2.3478646278381348,2.0891010761260986
304929.2281936385,0.28529298305511475,0.7432013154029846,1.2328665256500244,1.8076143264770508,2.1097981929779053,2.5641558170318604,2.6669273376464844,2.075525999069214
304929.2321936385,0.32526180148124695,0.847510039806366,1.4084948301315308,2.091808557510376,2.4436991214752197,2.9886326789855957,3.1301016807556152,2.449939012527466
304929.2361936385,0.21144729852676392,0.5506472587585449,0.8533949255943298,0.9188525080680847,0.7894764542579651,0.21887417137622833,-0.12358903884887695,-0.5442348718643188
304929.2401936385,0.3216216266155243,0.8003542423248291,1.0772724151611328,0.9074297547340393,0.4673645794391632,0.0927429273724556,0.12138901650905609,0.663625180721283
304929.2441936385,0.4065682888031006,0.9744302034378052,1.1484359502792358,0.7041564583778381,-0.026570705696940422,0.048856448382139206,0.6144844889640808,2.3006045818328857
304929.2481936385,0.46199050545692444,1.115825891494751,1.3159823417663574,0.7881588339805603,-0.0556919239461422,0.005328417755663395,0.594955325126648,2.633755683898926
304929.25219363853,0.26771146059036255,0.545357346534729,0.2947598397731781,-0.22171233594417572,-0.09475605934858322,1.0314290523529053,1.9489305019378662,1.5112042427062988
304929.2561936385,0.3922629654407501,0.6675259470939636,0.16420583426952362,-0.19180147349834442,0.5931066274642944,1.8308535814285278,1.9161665439605713,1.0264509916305542
304929.2601936385,0.4824558198451996,0.6989337205886841,-0.02980661205947399,-0.07884028553962708,1.3986576795578003,2.4540765285491943,1.3579157590866089,0.23680917918682098
304929.2641936385,0.5481993556022644,0.7919615507125854,-0.04845663160085678,-0.12047051638364792,1.6172574758529663,2.8188583850860596,1.5796548128128052,0.18912698328495026
304929.26819363853,0.29317453503608704,0.23567090928554535,-0.10773829370737076,0.5416991710662842,1.4676753282546997,0.49253731966018677,-0.1155100166797638,1.2703818082809448
304929.2721936385,0.40760451555252075,0.2171691507101059,-0.06641854345798492,1.179785132408142,1.588112235069275,0.10174538940191269,0.8788051605224609,2.841548204421997
304929.2761936385,0.4838721752166748,0.15377222001552582,0.016393765807151794,1.7797805070877075,1.366517424583435,-0.340227335691452,2.190845012664795,4.3002824783325195
304929.2801936385,0.5493536591529846,0.16901372373104095,0.014164505526423454,2.061537027359009,1.5451982021331787,-0.4377892017364502,2.4659969806671143,4.901987552642822
304929.28419363854,0.2779756486415863,-0.063729427754879,0.3611673414707184,1.052017092704773,-0.0704253762960434,0.8429480791091919,1.635395884513855,-0.0665423795580864
304929.2881936385,0.37447836995124817,-0.11590620130300522,0.746741771697998,1.0910383462905884,-0.06576240062713623,1.8855122327804565,1.257086992263794,0.5217450261116028
304929.2921936385,0.4311281740665436,-0.15477852523326874,1.1073744297027588,0.9154514074325562,0.022046495229005814,2.792996406555176,0.4707147181034088,1.4459450244903564
304929.2961936385,0.4895002543926239,-0.17903736233711243,1.2758216857910156,1.0340553522109985,-0.04349145665764809,3.287595510482788,0.48836660385131836,1.579746961593628
304929.30019363854,0.21878518164157867,-0.06846360862255096,0.8593628406524658,-0.05888890475034714,0.9739078879356384,0.7292769551277161,0.039633601903915405,2.246727466583252
304929.3041936385,0.2780963182449341,-0.0021310027223080397,1.134050965309143,-0.10295664519071579,1.6126601696014404,0.24674361944198608,1.3416738510131836,1.8390991687774658
304929.3081936385,0.3038508892059326,0.08825738728046417,1.2516632080078125,-0.12066672742366791,2.0862677097320557,-0.39027139544487,2.716763496398926,0.9553013443946838
304929.3121936385,0.344220906496048,0.10281907767057419,1.4305788278579712,-0.14262166619300842,2.4140207767486572,-0.5163977742195129,3.1988251209259033,0.9704886674880981
304929.31619363854,0.13689623773097992,0.26832666993141174,0.3794249892234802,0.5444319248199463,0.6182090640068054,0.9537431597709656,0.8676912188529968,1.0924187898635864
304929.3201936385,0.18949265778064728,0.473989337682724,0.4239822030067444,1.0511794090270996,0.5217515826225281,1.9362587928771973,0.7339993715286255,2.4200103282928467
304929.3241936385,0.21887661516666412,0.5421330332756042,0.49466294050216675,1.2037228345870972,0.6181852221488953,2.207221508026123,0.8306025266647339,2.7870261669158936
304929.32819363853,0.07142551988363266,0.4454878866672516,-0.0796707347035408,1.1162525415420532,-0.23014548420906067,1.678740382194519,0.5398865938186646,1.1698392629623413
304929.3321936385,0.07096249610185623,0.7051742672920227,-0.18277567625045776,1.4308664798736572,0.1394660770893097,1.4644888639450073,2.1959972381591797,0.5484245419502258
304929.3361936385,0.05763406306505203,0.9061490297317505,-0.27313119173049927,1.5653226375579834,0.6832755208015442,0.87330561876297,3.7085981369018555,-0.2099817842245102
304929.3401936385,0.06381113827228546,1.039136290550232,-0.324195921421051,1.7828465700149536,0.7764968872070312,0.9567320346832275,4.497321128845215,-0.42990368604660034
304929.34419363854,-0.0034668948501348495,0.5648633241653442,0.07929428666830063,0.3424150049686432,1.2996925115585327,-0.1489257663488388,1.2933589220046997,1.5146448612213135
304929.3481936385,-0.02401825599372387,0.7699163556098938,0.3702854514122009,0.10497958213090897,1.7549784183502197,0.5691441297531128,0.6627927422523499,2.396925449371338
304929.3521936385,-0.04669570550322533,0.8891838788986206,0.6971280574798584,-0.21116004884243011,1.988637089729309,1.442566990852356,-0.24672186374664307,2.8547956943511963
304929.3561936385,-0.05315395072102547,1.016585350036621,0.7940506935119629,-0.2667165696620941,2.270993947982788,1.6573964357376099,-0.34149593114852905,3.455684185028076
304929.36019363854,-0.04277192801237106,0.4089350402355194,0.8001929521560669,-0.0474589541554451,0.2570134997367859,1.5292774438858032,0.8311409950256348,-0.18568623065948486
304929.3641936385,-0.06044883653521538,0.4507093131542206,1.1994993686676025,0.3665570616722107,0.03490710258483887,1.458653450012207,1.9746758937835693,0.8003385066986084
304929.3681936385,-0.07246054708957672,0.4185793399810791,1.4830703735351562,0.8629261255264282,-0.21777786314487457,1.000576138496399,2.9742298126220703,2.088599681854248
304929.3721936385,-0.0824292004108429,0.4724290668964386,1.7025343179702759,0.9878526329994202,-0.2856397032737732,1.150191307067871,3.5168111324310303,2.3351192474365234
304929.37619363854,-0.04328284412622452,0.08075855672359467,0.6963052153587341,1.1733137369155884,0.42980337142944336,-0.17778638005256653,0.4530428647994995,2.0413384437561035
304929.3801936385,-0.04820284619927406,0.01965959370136261,0.7400643229484558,1.6165670156478882,1.2597819566726685,0.39626210927963257,0.3077890872955322,1.4625518321990967
304929.3841936385,-0.04431058093905449,-0.06228966638445854,0.6525139212608337,1.86149263381958,2.073500633239746,1.227804183959961,0.19745765626430511,0.43040549755096436
304929.38819363853,-0.05002495273947716,-0.07888637483119965,0.7375641465187073,2.1250977516174316,2.4179351329803467,1.3806488513946533,0.12552165985107422,0.4299546480178833
304929.39219363854,-0.007438259199261665,-0.07043854892253876,0.033726222813129425,0.5088021159172058,1.3169300556182861,1.8379569053649902,1.5079997777938843,0.8947688937187195
304929.3961936385,0.012619216926395893,-0.09523988515138626,-0.1063590794801712,0.2767738401889801,1.0534855127334595,1.8546971082687378,2.1185555458068848,2.568747043609619
304929.4001936385,0.03900660574436188,-0.10927827656269073,-0.25238436460494995,-0.06517460942268372,0.507569432258606,1.476385474205017,2.350287914276123,4.218120574951172
304929.40419363853,0.04404352232813835,-0.12515398859977722,-0.30556413531303406,-0.10663031041622162,0.551599383354187,1.6935288906097412,2.7607154846191406,4.837221145629883
304929.40819363855,0.06566417962312698,0.05139949545264244,-0.07007986307144165,-0.17311201989650726,-0.24444988369941711,-0.28037092089653015,-0.1989508867263794,0.19554466009140015
304929.4121936385,0.12400361895561218,0.18786919116973877,0.17323003709316254,0.1668766438961029,0.1726803481578827,0.18742579221725464,0.23114261031150818,0.5049030780792236
304929.4161936385,0.17826084792613983,0.33501288294792175,0.46762725710868835,0.5898958444595337,0.7166381478309631,0.8367857336997986,0.9792440533638,1.176987886428833
304929.42019363854,0.2032044529914856,0.38206130266189575,0.5381321907043457,0.6693369150161743,0.793927013874054,0.914938747882843,1.0484274625778198,1.2058464288711548
304929.42419363855,0.15048809349536896,0.3712795376777649,0.6649104356765747,1.0273292064666748,1.3656102418899536,1.7243269681930542,1.902927279472351,2.178480386734009
304929.4281936385,0.2417934387922287,0.6207594871520996,1.062678575515747,1.5503326654434204,1.8541501760482788,1.908274531364441,1.7783029079437256,1.737173318862915
304929.4321936385,0.3171241879463196,0.8356069922447205,1.376898169517517,1.919012188911438,2.0613648891448975,1.7334572076797485,1.1229931116104126,0.7720234990119934
304929.43619363854,0.3612574338912964,0.9498938322067261,1.5662271976470947,2.21248197555542,2.403674840927124,1.9889774322509766,1.325430154800415,0.8537387847900391
304929.44019363855,0.22588402032852173,0.5998028516769409,0.7524926066398621,0.6502364873886108,0.2124866098165512,-0.11845458298921585,-0.07545281946659088,0.48234492540359497
304929.4441936385,0.3413325548171997,0.8417701721191406,0.8844566345214844,0.44100287556648254,0.013244099915027618,0.12233350425958633,0.9653906226158142,1.8272545337677002
304929.4481936385,0.42918145656585693,0.9978155493736267,0.8734959363937378,0.07761169970035553,-0.19162645936012268,0.5333782434463501,2.2548341751098633,3.1288981437683105
304929.45219363854,0.48897621035575867,1.1353167295455933,0.9978287220001221,0.06857416033744812,-0.22404371201992035,0.5610376596450806,2.569533348083496,3.7150018215179443
304929.45619363856,0.2757241427898407,0.4858910143375397,0.10772772878408432,-0.11616966128349304,0.48561468720436096,1.737877607345581,1.8137261867523193,0.39970242977142334
304929.4601936385,0.4017413258552551,0.5653939843177795,-0.016368059441447258,0.07987628132104874,1.28958261013031,2.1243033409118652,1.2694323062896729,0.39707043766975403
304929.46419363853,0.49215880036354065,0.5611193180084229,-0.1792236566543579,0.3467950224876404,2.053239345550537,2.117961883544922,0.3487553596496582,0.5777944326400757
304929.46819363855,0.5582388043403625,0.6326981782913208,-0.19931641221046448,0.37809282541275024,2.397722005844116,2.4149138927459717,0.3423440158367157,0.5882442593574524
304929.47219363856,0.2969880700111389,0.1515013426542282,-0.11826383322477341,0.8761041760444641,1.2910634279251099,0.028087936341762543,0.6479964852333069,2.047369956970215
304929.4761936385,0.4066438376903534,0.10115573555231094,0.05671509727835655,1.4209887981414795,1.0816172361373901,0.036613043397665024,1.9584852457046509,2.124018669128418
304929.48019363853,0.4737112820148468,0.017490386962890625,0.2796517610549927,1.8126112222671509,0.5827566981315613,0.17413173615932465,3.130798101425171,1.7075936794281006
304929.48419363855,0.538214921951294,0.016676977276802063,0.3251836895942688,2.0947444438934326,0.6332391500473022,0.09423789381980896,3.621913194656372,1.968696117401123
304929.48819363856,0.2577199637889862,-0.08927511423826218,0.5473958849906921,0.8399373888969421,-0.19701255857944489,1.55144464969635,0.8266703486442566,0.0073746065609157085
304929.4921936385,0.345951646566391,-0.126776322722435,0.9845901131629944,0.6935968995094299,0.15270818769931793,2.186168909072876,0.4558297097682953,1.6854397058486938
304929.49619363854,0.3983553349971771,-0.1438816338777542,1.3675535917282104,0.3698733150959015,0.6660115718841553,2.482883930206299,0.04551621153950691,3.5973939895629883
304929.50019363855,0.45223525166511536,-0.1683567464351654,1.5602483749389648,0.39982157945632935,0.7433242201805115,2.8643698692321777,-0.07878979295492172,4.168221950531006
304929.50419363857,0.19781547784805298,-0.003430167445912957,0.8725163340568542,-0.15714171528816223,1.4498196840286255,0.13298512995243073,1.1387841701507568,1.1063719987869263
304929.5081936385,0.2484825849533081,0.08572805672883987,1.0363013744354248,-0.09319998323917389,1.9029700756072998,0.008974104188382626,2.1998722553253174,0.7072564959526062
304929.51219363854,0.26883628964424133,0.19114384055137634,1.0435988903045654,0.05531075596809387,2.0656397342681885,-0.09081309288740158,3.0514957904815674,0.2603084444999695
304929.51619363856,0.30424538254737854,0.21696308255195618,1.1811779737472534,0.04247251898050308,2.3932547569274902,-0.17074155807495117,3.5967464447021484,0.17283357679843903
304929.5201936386,0.11297545582056046,0.2882888913154602,0.22076500952243805,0.7249795198440552,0.20931853353977203,1.3629965782165527,0.223788321018219,2.1608328819274902
304929.5241936385,0.1285252571105957,0.5263075828552246,0.10838852822780609,1.3663376569747925,-0.029638217762112617,2.048438787460327,0.19697049260139465,3.5381815433502197
304929.52819363854,0.12482015788555145,0.743156373500824,-0.038736626505851746,1.9483433961868286,-0.23439408838748932,2.458294630050659,0.26630905270576477,4.314241409301758
304929.53219363856,0.14088545739650726,0.848031222820282,-0.06735144555568695,2.2240195274353027,-0.3413975238800049,2.805089235305786,0.1913556456565857,5.245045185089111
304929.5361936386,0.025226913392543793,0.6014994382858276,-0.09882919490337372,0.8734707236289978,0.7544757723808289,0.01728782057762146,1.875806212425232,0.09944772720336914
304929.54019363853,0.022830801084637642,0.9237607717514038,-0.087726891040802,1.1207704544067383,1.50406813621521,-0.42626163363456726,2.869929075241089,0.8095285892486572
304929.54419363855,0.027027996256947517,1.0619242191314697,-0.10990101844072342,1.3103535175323486,1.7096142768859863,-0.5132333040237427,3.305391311645508,0.898210883140564
304929.54819363856,-0.016378777101635933,0.5759173631668091,0.22795085608959198,0.038758691400289536,1.3463290929794312,0.40558236837387085,0.11430014669895172,2.2967584133148193
304929.5521936385,-0.03853804990649223,0.7295805811882019,0.6010867953300476,-0.10019087046384811,1.4706848859786987,1.3448002338409424,0.016793983057141304,1.991599440574646
304929.55619363853,-0.05984136462211609,0.7917690277099609,0.9883412718772888,-0.2650165259838104,1.2924281358718872,2.316906213760376,0.12020662426948547,1.2013788223266602
304929.56019363855,-0.06787886470556259,0.9000915288925171,1.1265290975570679,-0.3044449985027313,1.4798105955123901,2.6850433349609375,0.027863668277859688,1.351881504058838
304929.56419363857,-0.04834538325667381,0.32569578289985657,0.8518332242965698,0.240799218416214,-0.1797102689743042,1.247040033340454,1.7237306833267212,0.23639649152755737
304929.5681936385,-0.06955084204673767,0.3303208649158478,1.1835235357284546,0.7803157567977905,-0.152390718460083,0.7859330773353577,2.2726047039031982,1.4601256847381592
304929.57219363854,-0.08352688699960709,0.2740519046783447,1.3883566856384277,1.3512507677078247,0.03093111515045166,0.04312092065811157,2.3478891849517822,2.773601770401001
304929.57619363855,-0.09526494145393372,0.30722153186798096,1.579654335975647,1.5518077611923218,0.0017818098422139883,-0.004431089386343956,2.7603847980499268,3.2097151279449463
304929.58019363857,-0.03976982831954956,0.017429301515221596,0.5606536865234375,1.1435421705245972,0.9229720234870911,0.03420574590563774,-0.5923288464546204,0.6943898797035217
304929.5841936385,-0.03995848819613457,-0.03543148189783096,0.5053794384002686,1.40276038646698,1.6550217866897583,1.0263687372207642,0.03687793016433716,0.3650754988193512
304929.58819363854,-0.03136875480413437,-0.09135990589857101,0.3333437740802765,1.4360712766647339,2.275177001953125,2.1044530868530273,1.0445276498794556,0.08903131633996964
304929.59219363856,-0.03581146150827408,-0.1100902333855629,0.3707044720649719,1.632513403892517,2.603461503982544,2.4698569774627686,1.1540536880493164,-0.06336259841918945
304929.5961936386,0.011782490648329258,-0.08329637348651886,-0.07560493797063828,0.13246120512485504,0.7150382995605469,1.6505032777786255,1.820212483406067,2.0001277923583984
304929.60019363853,0.03969181329011917,-0.06098354235291481,-0.1492196023464203,-0.08050461858510971,0.3558320105075836,1.1867917776107788,1.7524782419204712,2.1021389961242676
304929.60419363854,0.07012052088975906,-0.01847556233406067,-0.19717195630073547,-0.31883302330970764,-0.18386101722717285,0.3413441777229309,1.1770708560943604,1.6551823616027832
304929.60819363856,0.07967550307512283,-0.019837554544210434,-0.24590598046779633,-0.37867453694343567,-0.2421523779630661,0.3407975137233734,1.3427470922470093,1.9566659927368164
304929.6121936386,0.08734532445669174,0.1244741752743721,0.09166423976421356,0.0010591770987957716,0.043340276926755905,-0.03940831869840622,-0.13333263993263245,-0.26464223861694336
304929.61619363853,0.15454284846782684,0.29677408933639526,0.41433456540107727,0.524859607219696,0.6807944178581238,0.8991804122924805,1.0294326543807983,1.182973027229309
304929.62019363855,0.21508155763149261,0.4709221124649048,0.759517252445221,1.1247882843017578,1.4003357887268066,2.0430173873901367,2.337747097015381,2.960474967956543
304929.62419363856,0.2449577897787094,0.5383865833282471,0.8726912140846252,1.2916722297668457,1.6106016635894775,2.3415307998657227,2.7068018913269043,3.3516016006469727
304929.6281936386,0.170523539185524,0.4427638053894043,0.8142121434211731,1.094547152519226,1.4676966667175293,1.7407609224319458,1.5960063934326172,1.4311292171478271
304929.63219363854,0.267391175031662,0.6969393491744995,1.1738570928573608,1.470189094543457,1.6091173887252808,1.5140142440795898,1.162900686264038,0.8238410353660583
304929.63619363855,0.3458028733730316,0.8951531648635864,1.4092131853103638,1.6439793109893799,1.3946483135223389,0.8978593945503235,0.4056970179080963,-0.016477080062031746
304929.64019363857,0.39358285069465637,1.018781065940857,1.6166211366653442,1.8769422769546509,1.597495675086975,0.9853970408439636,0.39213988184928894,-0.13338740170001984
304929.6441936386,0.24593700468540192,0.6056146621704102,0.6512901782989502,0.3302909731864929,-0.03871678188443184,-0.1487429291009903,0.5032817125320435,1.6773103475570679
304929.64819363854,0.3660804331302643,0.8007747530937195,0.6711861491203308,0.09338559210300446,-0.004695833195000887,0.6238533854484558,1.5919939279556274,3.370544910430908
304929.65219363855,0.4539589583873749,0.9000697731971741,0.5543767809867859,-0.20695510506629944,0.11655031889677048,1.637410283088684,2.6128933429718018,4.629755020141602
304929.65619363857,0.517823338508606,1.0279550552368164,0.625803530216217,-0.27484130859375,0.06963866204023361,1.8537557125091553,3.084167003631592,5.671802043914795
304929.6601936386,0.31280675530433655,0.3974456191062927,-0.035394202917814255,0.06677903980016708,1.1183154582977295,1.5631167888641357,0.5660544633865356,0.16465777158737183
304929.66419363854,0.47636502981185913,0.5395211577415466,-0.08077187836170197,0.3300648629665375,1.8573760986328125,2.0791897773742676,0.04616837948560715,0.562505841255188
304929.66819363856,0.5483191013336182,0.6256953477859497,-0.09230577200651169,0.361280620098114,2.141618013381958,2.4586904048919678,0.10387351363897324,0.5909543633460999
304929.6721936386,0.2901952862739563,0.15543994307518005,-0.10750497877597809,0.9211843013763428,1.2575299739837646,0.06590061634778976,0.42425867915153503,2.2275657653808594
304929.67619363853,0.40076422691345215,0.10321044921875,0.05700113996863365,1.4934557676315308,1.0946402549743652,0.09630508720874786,1.7751083374023438,2.158745765686035
304929.68019363855,0.47191429138183594,0.012735148891806602,0.2797695994377136,1.9353065490722656,0.6519293189048767,0.22761858999729156,3.211095094680786,1.5458816289901733
304929.68419363856,0.5367884039878845,0.010968970134854317,0.32277870178222656,2.212639093399048,0.7149537801742554,0.17966443300247192,3.717740297317505,1.8028628826141357
304929.6881936386,0.265669584274292,-0.07684037834405899,0.5497880578041077,0.8410197496414185,-0.19125154614448547,1.4710254669189453,1.0489330291748047,-0.35956987738609314
304929.69219363853,0.3515283763408661,-0.11783364415168762,0.9499893188476562,0.6877593398094177,0.20601223409175873,2.0480287075042725,0.6448518633842468,1.1241451501846313
304929.69619363855,0.3988923728466034,-0.13602781295776367,1.2940913438796997,0.35138899087905884,0.7382321357727051,2.2941439151763916,0.11760230362415314,2.8354339599609375
304929.70019363856,0.4524368643760681,-0.16243743896484375,1.4822089672088623,0.3888576924800873,0.8350304365158081,2.6263391971588135,0.03357766941189766,3.347263813018799
304929.7041936386,0.195765420794487,-0.025627808645367622,0.8240944743156433,-0.1000475212931633,1.4220339059829712,0.0802987664937973,1.2489519119262695,1.1496433019638062
304929.70819363854,0.24731875956058502,0.0748610645532608,1.0068966150283813,0.002791167702525854,1.8841495513916016,-0.08310166746377945,2.1357083320617676,0.9414692521095276
304929.71219363855,0.26912692189216614,0.19604893028736115,1.045684814453125,0.17519931495189667,2.0562102794647217,-0.17499318718910217,2.7072181701660156,0.6336475610733032
304929.71619363857,0.3051580786705017,0.22323712706565857,1.1984527111053467,0.18028715252876282,2.3889107704162598,-0.28975680470466614,3.1583096981048584,0.6155622601509094
304929.7201936386,0.11322982609272003,0.2873135805130005,0.25558069348335266,0.6922399401664734,0.2043115794658661,1.2049119472503662,0.1053163930773735,2.0869781970977783
304929.72419363854,0.12937630712985992,0.5218685865402222,0.13346412777900696,1.3203109502792358,-0.03499515727162361,1.9350972175598145,0.132308691740036,2.675788640975952
304929.72819363856,0.1262461394071579,0.7367146015167236,-0.05559377744793892,1.8917850255966187,-0.2744872570037842,2.4336767196655273,0.3524395227432251,2.6390633583068848
304929.73219363857,0.1425342857837677,0.839106559753418,-0.06816715747117996,2.1686885356903076,-0.3538878858089447,2.8085615634918213,0.34683504700660706,3.1185638904571533
304929.7361936386,0.031391169875860214,0.561011791229248,-0.13806922733783722,1.0071845054626465,0.48372629284858704,0.32897984981536865,1.8759970664978027,-0.019904496148228645
304929.74019363854,0.018969852477312088,0.814216673374176,-0.02663969062268734,0.9285265803337097,1.274535059928894,0.12767012417316437,2.365527391433716,0.8198771476745605
304929.74419363856,0.0001053153901011683,0.9943094253540039,0.12337924540042877,0.6579428315162659,2.0532987117767334,-0.03397273272275925,2.496591567993164,1.9410167932510376
304929.7481936386,-0.0008162113954313099,1.1241897344589233,0.1433316320180893,0.7335272431373596,2.3784027099609375,-0.1463053971529007,2.88582181930542,2.239718198776245
304929.7521936386,-0.041264742612838745,0.5501580834388733,0.5471010804176331,-0.16230912506580353,1.0601000785827637,1.3311936855316162,-0.16384629905223846,1.1053292751312256
304929.75619363855,-0.0699528232216835,0.7826501131057739,0.9615989327430725,-0.30497246980667114,1.235192060470581,2.3560452461242676,0.0015330496244132519,0.8270967602729797
304929.76019363856,-0.0803920328617096,0.9016677141189575,1.1003644466400146,-0.35495883226394653,1.4365553855895996,2.7505102157592773,-0.07566384971141815,1.0309579372406006
304929.7641936386,-0.054658450186252594,0.32494258880615234,0.8502399325370789,0.19364866614341736,-0.1429048776626587,1.3511804342269897,1.7845335006713867,-0.03209603577852249
304929.76819363853,-0.07370122522115707,0.32915082573890686,1.1371219158172607,0.7253507375717163,-0.1359362155199051,0.8615007996559143,2.2162888050079346,2.1367623805999756
304929.77219363855,-0.08303651213645935,0.27198752760887146,1.2943322658538818,1.2862683534622192,-0.024024665355682373,0.09545933455228806,2.219045639038086,4.779557704925537
304929.77619363857,-0.0960526391863823,0.30523523688316345,1.4720908403396606,1.4778863191604614,-0.07537703216075897,0.025262625887989998,2.5862698554992676,5.348546504974365
304929.7801936386,-0.036783039569854736,-0.0011166308540850878,0.5444831252098083,1.1881015300750732,1.0192698240280151,0.22703871130943298,-0.2740466892719269,1.648836612701416
304929.78419363854,-0.03875754401087761,-0.05727088078856468,0.5022408366203308,1.4187779426574707,1.7394951581954956,1.2050304412841797,0.25202903151512146,0.8773497939109802
304929.78819363855,-0.03307104483246803,-0.11596401780843735,0.3482736051082611,1.414570927619934,2.3074145317077637,2.286738395690918,1.0271602869033813,0.052457429468631744
304929.79219363857,-0.03732511028647423,-0.13804718852043152,0.386887788772583,1.6099697351455688,2.628068208694458,2.634326934814453,1.1097338199615479,-0.22670021653175354
304929.7961936386,0.007722085807472467,-0.10260198265314102,-0.13906244933605194,0.20767925679683685,0.7495667338371277,1.4266412258148193,2.219747543334961,1.9678446054458618
304929.80019363854,0.03904347866773605,-0.07562839239835739,-0.21113629639148712,-0.030868658795952797,0.4403837025165558,1.0475038290023804,2.0131676197052,2.2195284366607666
304929.80419363856,0.07442047446966171,-0.02610846795141697,-0.24509303271770477,-0.3293896019458771,-0.03081410750746727,0.33458420634269714,1.2209992408752441,2.0161519050598145
304929.8081936386,0.08522188663482666,-0.030141806229948997,-0.29319921135902405,-0.4025636911392212,-0.06997057050466537,0.34945163130760193,1.3762589693069458,2.375746011734009
304929.8121936386,0.08735958486795425,0.11662928014993668,0.11010631173849106,0.06371293216943741,-0.006477056071162224,-0.17540223896503448,0.09375624358654022,0.05232794210314751
304929.81619363854,0.1543259471654892,0.29167085886001587,0.420138418674469,0.5807091593742371,0.6200101971626282,0.7576161623001099,1.0865260362625122,1.461058497428894
304929.82019363856,0.21450161933898926,0.47013550996780396,0.7531554698944092,1.1707879304885864,1.357704520225525,1.8458609580993652,2.243368148803711,3.1314878463745117
304929.8241936386,0.2443591058254242,0.5378822684288025,0.8642488718032837,1.3397918939590454,1.5689432621002197,2.1377506256103516,2.5588316917419434,3.581204891204834
304929.8281936386,0.17039653658866882,0.45668405294418335,0.8158976435661316,1.0541690587997437,1.421091914176941,1.7666149139404297,1.7369517087936401,1.5555611848831177
304929.83219363855,0.26921406388282776,0.7333583831787109,1.2095288038253784,1.4630210399627686,1.5051922798156738,1.5582094192504883,1.0799661874771118,0.6570529937744141
304929.83619363856,0.34952691197395325,0.9598056077957153,1.4846800565719604,1.6873575448989868,1.3073002099990845,0.9732600450515747,0.015619950369000435,-0.47326141595840454
304929.8401936386,0.39747190475463867,1.093468189239502,1.689756989479065,1.94611394405365,1.501692533493042,1.058958888053894,-0.026791991665959358,-0.7243738174438477
304929.8441936386,0.24575506150722504,0.6121464371681213,0.6620767712593079,0.35052910447120667,-0.1276106834411621,-0.44625747203826904,0.49729180335998535,1.7114520072937012
304929.84819363855,0.3637446463108063,0.8072830438613892,0.6709532141685486,0.17919598519802094,-0.049426183104515076,0.4168829917907715,1.5435258150100708,2.437561511993408
304929.85219363857,0.4503079652786255,0.908109188079834,0.5441853404045105,-0.06067332997918129,0.11709834635257721,1.5395128726959229,2.5338993072509766,2.6595563888549805
304929.8561936386,0.5123478174209595,1.032895803451538,0.6142553687095642,-0.09188200533390045,0.1138068437576294,1.7698732614517212,2.958961248397827,3.118518590927124
304929.8601936386,0.2906504273414612,0.39407461881637573,-0.007133944425731897,-0.054128628224134445,0.8990681171417236,1.8085529804229736,0.7486063241958618,-0.4995931386947632
304929.86419363855,0.4107852876186371,0.44364020228385925,-0.08088107407093048,0.33979934453964233,1.609566330909729,1.6486932039260864,0.3627358675003052,0.44784849882125854
304929.86819363857,0.49299198389053345,0.42174607515335083,-0.15415140986442566,0.8077819347381592,2.208879232406616,1.0969874858856201,-0.09937983006238937,1.8432061672210693
304929.8721936386,0.5587365031242371,0.4761050343513489,-0.17804889380931854,0.9268189072608948,2.5374600887298584,1.2387747764587402,-0.13650082051753998,2.06506085395813
304929.8761936386,0.2840503752231598,0.06238564848899841,0.021958770230412483,1.1436103582382202,0.7581649422645569,-0.13562048971652985,1.27578866481781,1.9763423204421997
304929.88019363856,0.39465591311454773,0.0030050212517380714,0.2853113114833832,1.5409904718399048,0.42298945784568787,0.4497665464878082,2.7007691860198975,1.4074393510818481
304929.8841936386,0.464589387178421,-0.07661131769418716,0.5856119394302368,1.7673603296279907,-0.06356234848499298,1.178215742111206,4.061131000518799,0.40556836128234863
304929.8881936386,0.5290400981903076,-0.0872069001197815,0.668868362903595,1.997462272644043,-0.1282559484243393,1.335706114768982,4.589884281158447,0.3695736825466156
304929.8921936386,0.24539656937122345,-0.07592076063156128,0.7139270901679993,0.5068235993385315,0.022541530430316925,1.5782583951950073,0.05968679487705231,1.1894198656082153
304929.89619363856,0.323742151260376,-0.08611946552991867,1.1661072969436646,0.33603808283805847,0.6602658033370972,1.745522141456604,0.06165939196944237,3.5714757442474365
304929.9001936386,0.36732909083366394,-0.0764785185456276,1.5215024948120117,0.056625958532094955,1.396176815032959,1.5171705484390259,0.32613325119018555,5.7695207595825195
304929.9041936386,0.4159119427204132,-0.09081177413463593,1.7431483268737793,0.04765760898590088,1.6147767305374146,1.7263847589492798,0.2748136520385742,6.9515581130981445
304929.9081936386,0.17755834758281708,0.04496227949857712,0.7483009696006775,-0.16299337148666382,1.4288337230682373,-0.3311293125152588,1.8810267448425293,0.30510300397872925
304929.91219363856,0.21899177134037018,0.1810695081949234,0.835931658744812,0.13888199627399445,1.5334030389785767,0.11276459693908691,2.047177314758301,0.47357308864593506
304929.9161936386,0.23278702795505524,0.33106642961502075,0.7753781080245972,0.5515847206115723,1.3446073532104492,0.8148462772369385,1.8052200078964233,0.948910117149353
304929.9201936386,0.2637092173099518,0.3793714642524719,0.8773783445358276,0.6294421553611755,1.5499114990234375,0.9193920493125916,2.0991268157958984,0.912153959274292
304929.9241936386,0.0920208990573883,0.37422797083854675,0.06686248630285263,1.045240879058838,-0.1322803944349289,1.7118759155273438,-0.3113729655742645,2.308893918991089
304929.92819363857,0.09957774728536606,0.6394597291946411,-0.07123374938964844,1.512146234512329,-0.053012263029813766,1.904881238937378,1.0229324102401733,1.7159627676010132
304929.9321936386,0.09095366299152374,0.8645711541175842,-0.23624226450920105,1.79774010181427,0.12463639676570892,1.7340062856674194,2.8203675746917725,0.5082468390464783
304929.9361936386,0.10194363445043564,0.9895694851875305,-0.2781500220298767,2.054744243621826,0.10312657058238983,1.9774962663650513,3.0662050247192383,0.5646432638168335
304929.9401936386,0.015333740040659904,0.5840449929237366,-0.03531833738088608,0.7053439617156982,0.9552469253540039,-0.25908759236335754,2.72627329826355,0.11505232751369476
304929.94419363857,-0.0007499876664951444,0.8088155388832092,0.1457379162311554,0.5266847014427185,1.7195446491241455,0.05219060182571411,2.1644277572631836,1.7768352031707764
304929.9481936386,-0.02200412191450596,0.9453166723251343,0.3735600411891937,0.19895488023757935,2.3439488410949707,0.5375227928161621,1.1068954467773438,3.4952526092529297
304929.9521936386,-0.02479149028658867,1.082227110862732,0.4240318238735199,0.2107952982187271,2.7328319549560547,0.5800033807754517,1.1509031057357788,4.103028774261475
304929.9561936386,-0.039978593587875366,0.4791436493396759,0.744977593421936,-0.11870387196540833,0.6501566171646118,1.850575566291809,0.6302772164344788,0.12248804420232773
304929.9601936386,-0.06574564427137375,0.6744667291641235,1.2505549192428589,-0.023962819948792458,0.5894108414649963,2.8300344944000244,1.5773946046829224,-0.4619012176990509
304929.9641936386,-0.07548005133867264,0.7797313928604126,1.4426112174987793,-0.02365953102707863,0.6805328726768494,3.3132150173187256,1.7202982902526855,-0.6051825284957886
304929.9681936386,-0.05715837702155113,0.23371346294879913,0.8572812676429749,0.5265284776687622,-0.18609100580215454,0.4940654933452606,2.022150993347168,1.1346960067749023
304929.97219363856,-0.0748986229300499,0.2056519240140915,1.1008738279342651,1.1478261947631836,0.17471498250961304,0.059150464832782745,1.8897026777267456,2.0474164485931396
304929.9761936386,-0.08339996635913849,0.1297684609889984,1.2051782608032227,1.7551124095916748,0.6694414615631104,-0.40272772312164307,1.2584550380706787,2.702209234237671
304929.9801936386,-0.09534958750009537,0.14353743195533752,1.3663787841796875,2.0063838958740234,0.7374854683876038,-0.5529832243919373,1.3916516304016113,3.151599407196045
304929.9841936386,-0.026859765872359276,-0.04159345477819443,0.36604011058807373,1.1384071111679077,1.3122659921646118,0.715287983417511,-0.024006132036447525,-0.39564254879951477
304929.98819363856,-0.020959928631782532,-0.09669938683509827,0.2531605362892151,1.1312577724456787,1.7409977912902832,1.6339391469955444,1.2769880294799805,0.38934195041656494
304929.9921936386,-0.008318779990077019,-0.15502150356769562,0.05541855841875076,0.9020795226097107,1.9512991905212402,2.4952802658081055,2.796987295150757,1.5887476205825806
304929.9961936386,-0.008942870423197746,-0.1733424961566925,0.05999058485031128,1.0140222311019897,2.227365255355835,2.876295566558838,3.204617738723755,1.756095051765442
304930.0001936386,0.02345730923116207,-0.07203879952430725,-0.12467604875564575,-0.10166378319263458,0.2651780843734741,0.8284435868263245,1.6657966375350952,2.237687587738037
304930.00419363857,0.0631299614906311,-0.009500767104327679,-0.13797767460346222,-0.23163451254367828,0.027503598481416702,0.5241051316261292,0.8967499732971191,1.5516959428787231
304930.0081936386,0.10443190485239029,0.07340157777070999,-0.10491865128278732,-0.28737810254096985,-0.2718384265899658,0.12039651721715927,-0.24254228174686432,0.33171138167381287
304930.0121936386,0.11951460689306259,0.08651585131883621,-0.12615488469600677,-0.3641895651817322,-0.32431545853614807,0.07993598282337189,-0.3603644073009491,0.3393307030200958
304930.0161936386,0.10712440311908722,0.20638179779052734,0.2959950566291809,0.3838084638118744,0.457570344209671,0.5825392603874207,0.5832992196083069,0.7441494464874268
304930.0201936386,0.18318189680576324,0.41242167353630066,0.6818166375160217,0.9981483221054077,1.3311388492584229,1.5798583030700684,1.6486632823944092,2.1724085807800293
304930.0241936386,0.24952545762062073,0.6085547804832458,1.05744206905365,1.6160881519317627,2.2386350631713867,2.4882545471191406,2.6134235858917236,3.4644618034362793
304930.0281936386,0.28456053137779236,0.6950622797012329,1.2161940336227417,1.8593367338180542,2.5725104808807373,2.9380946159362793,3.0659193992614746,4.080933570861816
304930.0321936386,0.18822655081748962,0.5263041257858276,0.8528197407722473,1.0621342658996582,1.2333741188049316,1.108622670173645,0.49895039200782776,0.12242588400840759
304930.0361936386,0.29471907019615173,0.7916490435600281,1.1569443941116333,1.2209218740463257,1.0097377300262451,0.6473934054374695,0.20237374305725098,0.30754920840263367
304930.0401936386,0.381092369556427,0.9875566959381104,1.3378736972808838,1.1654642820358276,0.531293511390686,-0.07466566562652588,-0.02953266352415085,0.7954769134521484
304930.0441936386,0.4332464337348938,1.1267536878585815,1.526940941810608,1.3320355415344238,0.5771542191505432,-0.10769838094711304,-0.13823316991329193,0.8325792551040649
304930.0481936386,0.26279276609420776,0.5341935157775879,0.4779927432537079,0.09919731318950653,-0.3732730448246002,0.3823857009410858,1.448073387145996,1.9399211406707764
304930.0521936386,0.38636937737464905,0.7011194229125977,0.4255441129207611,-0.04689612239599228,0.02876977249979973,1.3417840003967285,2.2539312839508057,2.1473073959350586
304930.0561936386,0.476504385471344,0.7869970202445984,0.2735028862953186,-0.21041496098041534,0.6100640892982483,2.33804988861084,2.7120864391326904,1.7847023010253906
304930.0601936386,0.5422613620758057,0.8940833210945129,0.3026615083217621,-0.25704434514045715,0.6927105188369751,2.710574150085449,3.17814302444458,2.2154037952423096
304930.0641936386,0.2890505790710449,0.32386553287506104,-0.1612679362297058,0.1790316104888916,1.4801534414291382,1.275965929031372,-0.2151927649974823,0.023311754688620567
304930.0681936386,0.4132751524448395,0.32675549387931824,-0.21425528824329376,0.7315229177474976,1.9563791751861572,0.8125209808349609,0.26128536462783813,1.6232093572616577
304930.0721936386,0.49913859367370605,0.26797428727149963,-0.2308971881866455,1.3103690147399902,2.120698928833008,0.027727289125323296,1.1868736743927002,3.3248236179351807
304930.0761936386,0.5665451884269714,0.3014049232006073,-0.2686059772968292,1.5105786323547363,2.4465556144714355,0.02220935933291912,1.162269949913025,3.9257125854492188
304930.0801936386,0.3002767562866211,-0.014100565575063229,0.2743658721446991,1.22377347946167,0.04730658233165741,0.5560182929039001,2.715324878692627,0.4772474467754364
304930.0841936386,0.44432395696640015,-0.049032002687454224,0.5699512362480164,1.774243950843811,-0.2363647222518921,1.3065605163574219,3.2614336013793945,-0.05912753567099571
304930.0881936386,0.5111600160598755,-0.0525875948369503,0.6469296216964722,2.068774700164795,-0.2827351689338684,1.4542624950408936,3.772757053375244,-0.09068267047405243
304930.0921936386,0.24624775350093842,-0.07263074815273285,0.7385080456733704,0.4943383038043976,-0.03313376381993294,1.8055570125579834,0.0075160968117415905,1.008886694908142
304930.0961936386,0.3252963423728943,-0.09628112614154816,1.1210988759994507,0.2977992594242096,0.7038913369178772,1.8330087661743164,0.047299161553382874,2.316601276397705
304930.1001936386,0.3690747916698456,-0.10544648766517639,1.4045454263687134,-0.00906700175255537,1.5785183906555176,1.476745367050171,0.3378937840461731,3.3267993927001953
304930.1041936386,0.4185664653778076,-0.12509891390800476,1.603344202041626,-0.021714843809604645,1.79893958568573,1.6832375526428223,0.29182785749435425,3.9779257774353027
304930.1081936386,0.17739607393741608,0.05082649365067482,0.7942148447036743,-0.13612082600593567,1.4257640838623047,-0.2621944546699524,1.7889330387115479,0.24215538799762726
304930.1121936386,0.21927069127559662,0.1887112557888031,0.8630660176277161,0.18520613014698029,1.5191022157669067,0.2380443662405014,2.034803867340088,0.521543562412262
304930.1161936386,0.2331424057483673,0.33660680055618286,0.7843930125236511,0.5919580459594727,1.313895583152771,0.8986439108848572,1.8390566110610962,1.031551480293274
304930.1201936386,0.26407381892204285,0.3850836157798767,0.8870958685874939,0.6696861982345581,1.506211519241333,1.002814769744873,2.11397647857666,1.0241060256958008
304930.1241936386,0.09205833822488785,0.3626011908054352,0.0662151351571083,0.9874045848846436,-0.13076911866664886,1.8613570928573608,-0.26591289043426514,2.1690614223480225
304930.1281936386,0.09921279549598694,0.6242368817329407,-0.05019119009375572,1.4406334161758423,-0.03674167022109032,2.1194794178009033,0.5050512552261353,1.9150563478469849
304930.1321936386,0.08959192782640457,0.8556768894195557,-0.1779284030199051,1.7296547889709473,0.15013426542282104,1.9363497495651245,1.6657099723815918,1.0311481952667236
304930.1361936386,0.10114416480064392,0.9743767380714417,-0.21297694742679596,1.9845906496047974,0.13238006830215454,2.231048822402954,1.8674190044403076,1.1475175619125366
304930.1401936386,0.011618177406489849,0.6024715304374695,-0.03962644562125206,0.6356256604194641,1.018241047859192,-0.12239179015159607,1.9480260610580444,0.4970652163028717
304930.1441936386,-0.005403145216405392,0.8323896527290344,0.12784862518310547,0.46621260046958923,1.6860482692718506,0.15444910526275635,1.5842413902282715,1.9207009077072144
304930.1481936386,-0.026109931990504265,0.9727650880813599,0.34978359937667847,0.1551136076450348,2.1838362216949463,0.5692238211631775,0.7798488736152649,3.412191390991211
304930.1521936386,-0.030841361731290817,1.1065515279769897,0.3924809396266937,0.1538202464580536,2.499404191970825,0.5988243818283081,0.8513702154159546,3.943112373352051
304930.1561936386,-0.03751448169350624,0.4612087309360504,0.6210933327674866,-0.1796746701002121,0.7697281241416931,1.698721170425415,-0.16287308931350708,0.5151389241218567
304930.1601936386,-0.06345658004283905,0.5492619276046753,1.0200672149658203,-0.003399136010557413,0.46038028597831726,2.1231532096862793,1.002030611038208,0.3508036434650421
304930.1641936386,-0.0852375477552414,0.5589525103569031,1.3368703126907349,0.29362672567367554,0.015529989264905453,2.158646583557129,2.2766311168670654,0.3308752775192261
304930.1681936386,-0.09849777817726135,0.6352441310882568,1.5371549129486084,0.3231815993785858,-0.05051668360829353,2.4994561672210693,2.7177700996398926,0.1701195389032364
304930.17219363863,-0.04914919659495354,0.1577136218547821,0.8470625877380371,0.8665936589241028,-0.09510952234268188,-0.11941523849964142,1.2019702196121216,2.2762463092803955
304930.1761936386,-0.06044420972466469,0.10434699803590775,0.971061110496521,1.3855979442596436,0.6503797769546509,-0.0076399208046495914,0.7594988942146301,2.7675633430480957
304930.1801936386,-0.06126593053340912,0.01281689666211605,0.9489374756813049,1.788266658782959,1.5369269847869873,0.2468157559633255,0.11578937619924545,2.614658832550049
304930.1841936386,-0.07017172127962112,0.00984027050435543,1.070421814918518,2.066145420074463,1.7651783227920532,0.2096303105354309,0.008711857721209526,3.1909074783325195
304930.18819363863,-0.019555749371647835,-0.08073745667934418,0.17491991817951202,0.8494393825531006,1.433379888534546,1.5791034698486328,0.7564806938171387,-0.21377983689308167
304930.1921936386,-0.007107849698513746,-0.12040749192237854,0.014634032733738422,0.7195745706558228,1.5991402864456177,2.2290563583374023,1.9580117464065552,1.2131667137145996
304930.1961936386,0.011043916456401348,-0.14882434904575348,-0.1888645440340042,0.42784419655799866,1.4222193956375122,2.488292932510376,3.0879769325256348,2.8626205921173096
304930.2001936386,0.013672882691025734,-0.17401587963104248,-0.23108552396297455,0.46086958050727844,1.6340733766555786,2.912825107574463,3.607884168624878,3.36268949508667
304930.20419363864,0.060507554560899734,0.028754517436027527,-0.04369068145751953,-0.12477751821279526,-0.0429573692381382,0.039760250598192215,0.3045805096626282,0.9029906988143921
304930.2081936386,0.10693827271461487,0.08683649450540543,-0.01979760453104973,-0.14854319393634796,-0.10437791049480438,-0.1305357664823532,-0.08331157267093658,0.47634240984916687
304930.2121936386,0.12176519632339478,0.0976555198431015,-0.023322125896811485,-0.18366800248622894,-0.11553583294153214,-0.14796890318393707,-0.1294819563627243,0.5548660755157471
304930.2161936386,0.10705065727233887,0.20782417058944702,0.2986730933189392,0.36308902502059937,0.4438752830028534,0.5622411370277405,1.105961799621582,0.8418384194374084
304930.2201936386,0.18330156803131104,0.413386732339859,0.6794911026954651,0.9767298102378845,1.284873604774475,1.4925647974014282,2.3260116577148438,2.3008971214294434
304930.2241936386,0.2500440180301666,0.6090200543403625,1.0573899745941162,1.596892237663269,2.140122652053833,2.356152296066284,3.231208324432373,3.642529010772705
304930.2281936386,0.28498566150665283,0.694873571395874,1.2075177431106567,1.8284724950790405,2.4486143589019775,2.7611639499664307,3.727271318435669,4.2902021408081055
304930.2321936386,0.18940964341163635,0.5044828057289124,0.8837118148803711,1.0867726802825928,1.3398306369781494,1.0124067068099976,0.6847023963928223,0.3837701678276062
304930.2361936386,0.29468682408332825,0.7568745613098145,1.1712236404418945,1.2356449365615845,1.079033613204956,0.6152862310409546,0.32076331973075867,0.5252090692520142
304930.2401936386,0.3782484531402588,0.9485851526260376,1.3228890895843506,1.1763848066329956,0.5103871822357178,-0.008738061413168907,-0.037236880511045456,0.834815502166748
304930.2441936386,0.43122079968452454,1.0802534818649292,1.50442636013031,1.3483046293258667,0.5647397041320801,-0.040161844342947006,-0.22695614397525787,0.7855693697929382
304930.24819363863,0.2605663239955902,0.5622571110725403,0.5124822854995728,0.07156015932559967,-0.17775452136993408,0.19508251547813416,1.4614033699035645,1.848006010055542
304930.2521936386,0.378231942653656,0.7257725596427917,0.4270566999912262,-0.06494584679603577,0.20214921236038208,1.1131832599639893,2.3247976303100586,1.7884256839752197
304930.2561936386,0.4629150629043579,0.8007318377494812,0.2334020882844925,-0.21881183981895447,0.7206454277038574,2.0492560863494873,2.7964906692504883,1.2222260236740112
304930.2601936386,0.5257250666618347,0.9119775891304016,0.2574675977230072,-0.2509021759033203,0.820975661277771,2.3864171504974365,3.346705198287964,1.407038688659668
304930.26419363864,0.2921556234359741,0.32614216208457947,-0.0701303780078888,0.25445568561553955,1.3238630294799805,1.1787420511245728,-0.036958400160074234,0.364054411649704
304930.2681936386,0.41144075989723206,0.331506609916687,-0.11561688035726547,0.7836410999298096,1.792237639427185,0.8214825987815857,0.15333929657936096,1.7379380464553833
304930.2721936386,0.4916006624698639,0.27661144733428955,-0.13387757539749146,1.3482153415679932,1.982266902923584,0.17896591126918793,0.6058290004730225,3.3145294189453125
304930.2761936386,0.5572471022605896,0.31020739674568176,-0.17450018227100372,1.544837236404419,2.2725679874420166,0.18582332134246826,0.6300240159034729,3.7783594131469727
304930.28019363864,0.2826099693775177,0.006094035692512989,0.16431044042110443,1.106298804283142,0.2790354788303375,0.22465524077415466,1.9854761362075806,0.9093945622444153
304930.2841936386,0.38631123304367065,-0.04312873259186745,0.5083233714103699,1.367761492729187,0.16640010476112366,1.1476413011550903,2.0035133361816406,0.5748732686042786
304930.2881936386,0.44847220182418823,-0.09766509383916855,0.8679530024528503,1.413449764251709,0.028439395129680634,2.137294054031372,1.5001068115234375,0.2121632844209671
304930.2921936386,0.5099363923072815,-0.11851661652326584,0.998631477355957,1.6210682392120361,-0.0006646177498623729,2.490328788757324,1.7286734580993652,0.12902869284152985
304930.29619363864,0.23105046153068542,-0.0894203707575798,0.8504214286804199,0.18896764516830444,0.4870588779449463,1.635498046875,-0.5512468814849854,2.018080949783325
304930.3001936386,0.30046576261520386,-0.06860876828432083,1.2217307090759277,-0.013428165577352047,1.280881404876709,1.2916603088378906,0.33173060417175293,2.664243698120117
304930.3041936386,0.3354127109050751,-0.02672080136835575,1.468428373336792,-0.24813632667064667,2.0513625144958496,0.6038709878921509,1.5189793109893799,2.726059675216675
304930.30819363863,0.3813788592815399,-0.029382284730672836,1.6717677116394043,-0.32304462790489197,2.389124631881714,0.6394640803337097,1.754542589187622,3.3939805030822754
304930.31219363865,0.16067929565906525,0.1687210649251938,0.6048318147659302,0.24206556379795074,1.002576470375061,0.3603445589542389,1.6418194770812988,-0.2160303294658661
304930.3161936386,0.22563354671001434,0.32467958331108093,0.7520763278007507,0.5980722904205322,1.225780725479126,0.9456744194030762,1.8985681533813477,0.7872183322906494
304930.3201936386,0.260367751121521,0.3701728284358978,0.8706200122833252,0.6749274134635925,1.4368070363998413,1.0508980751037598,2.2647714614868164,0.8430284857749939
304930.32419363863,0.09079534560441971,0.361490398645401,0.08364289253950119,1.0005837678909302,-0.21559502184391022,1.808327555656433,-0.37523871660232544,1.8637124300003052
304930.3281936386,0.09710411727428436,0.6212834715843201,-0.04795512929558754,1.5221439599990845,-0.21228408813476562,2.0812861919403076,0.45897260308265686,1.7096139192581177
304930.3321936386,0.0870029479265213,0.8492018580436707,-0.20089565217494965,1.8857741355895996,-0.054298851639032364,1.9228726625442505,1.5983794927597046,1.1474815607070923
304930.3361936386,0.09799236804246902,0.9687603712081909,-0.23527102172374725,2.1574041843414307,-0.10842534154653549,2.2206952571868896,1.789676547050476,1.2721269130706787
304930.34019363864,0.011888517998158932,0.5702259540557861,-0.07965409755706787,0.6903301477432251,0.9668657779693604,-0.32250604033470154,1.7997729778289795,0.3198168873786926
304930.3441936386,-0.0016826287610456347,0.7990954518318176,0.11529271304607391,0.5321784615516663,1.7242317199707031,-0.05870996043086052,1.3876863718032837,1.9873106479644775
304930.3481936386,-0.018194761127233505,0.9550349712371826,0.3688289225101471,0.2292999029159546,2.344242572784424,0.45103710889816284,0.43200546503067017,3.7046585083007812
304930.3521936386,-0.021236320957541466,1.0803179740905762,0.4252171218395233,0.24582001566886902,2.738398313522339,0.491547167301178,0.5107340812683105,4.368891716003418
304930.35619363864,-0.033718209713697433,0.46971988677978516,0.6406520009040833,-0.27410203218460083,0.7269947528839111,1.5540691614151,-0.04688046872615814,0.34292125701904297
304930.3601936386,-0.05775541812181473,0.5554200410842896,1.0608279705047607,-0.03589959070086479,0.4944037199020386,1.9323734045028687,1.2998946905136108,0.2988833785057068
304930.3641936386,-0.07654473930597305,0.5623378157615662,1.3882864713668823,0.3102008104324341,0.12181292474269867,1.9729970693588257,2.7051162719726562,0.47343915700912476
304930.3681936386,-0.08864030241966248,0.6386709809303284,1.6017743349075317,0.35471656918525696,0.10762941837310791,2.272538423538208,3.116699457168579,0.44544005393981934
304930.37219363864,-0.05197061225771904,0.15182892978191376,0.8353770971298218,0.8963843584060669,-0.03476744517683983,0.010351741686463356,1.3713980913162231,1.849696397781372
304930.3761936386,-0.06088598445057869,0.10614583641290665,0.9776573777198792,1.4595431089401245,0.6172566413879395,0.03072369284927845,0.8042842149734497,1.9096320867538452
304930.3801936386,-0.060279734432697296,0.02574506402015686,0.9775524139404297,1.8982757329940796,1.3695522546768188,0.19680389761924744,0.007561074569821358,1.445674180984497
304930.38419363863,-0.06874946504831314,0.024270787835121155,1.1136047840118408,2.162041187286377,1.5820722579956055,0.14388352632522583,-0.12006533145904541,1.6988115310668945
304930.38819363865,-0.017716415226459503,-0.07134682685136795,0.18567891418933868,0.8581336140632629,1.5206362009048462,1.5461691617965698,0.6748222708702087,-0.28553885221481323
304930.3921936386,-0.003986727446317673,-0.11694742739200592,0.05323939397931099,0.7247676253318787,1.6442204713821411,2.1948587894439697,1.9968773126602173,1.1004360914230347
304930.3961936386,0.015936799347400665,-0.15321680903434753,-0.12369614094495773,0.41452986001968384,1.4112929105758667,2.47234845161438,3.2506253719329834,2.6218221187591553
304930.40019363863,0.019314628094434738,-0.17818689346313477,-0.155387282371521,0.45238322019577026,1.6179020404815674,2.8949718475341797,3.826763153076172,3.0872581005096436
304930.40419363865,0.02937467209994793,-0.03263157606124878,-0.05823838338255882,-0.04978710040450096,-0.08137883991003036,0.24505968391895294,0.7336280345916748,1.2327566146850586
304930.40819363866,0.08380641788244247,0.08502941578626633,0.04349454119801521,-0.02360459975898266,-0.003929376136511564,-0.2185433804988861,-0.19103428721427917,0.2045929729938507
304930.4121936386,0.14229466021060944,0.18928614258766174,0.2045956403017044,0.16625554859638214,0.0947510227560997,-0.10851943492889404,-0.10856908559799194,0.3922085165977478
304930.41619363864,0.16308316588401794,0.2127571552991867,0.23328141868114471,0.18970981240272522,0.08440154045820236,-0.13649441301822662,-0.23345766961574554,0.39572229981422424
304930.42019363865,0.12878884375095367,0.29099389910697937,0.4892818331718445,0.7308825850486755,0.9691464900970459,1.2100234031677246,1.4189183712005615,1.8124805688858032
304930.4241936386,0.2147161364555359,0.5191347002983093,0.8863775730133057,1.2851626873016357,1.6078578233718872,1.9305814504623413,2.0437533855438232,3.0438778400421143
304930.4281936386,0.2886926531791687,0.7225406765937805,1.232026219367981,1.7397955656051636,2.07686185836792,2.4690473079681396,2.350390911102295,3.8357231616973877
304930.43219363864,0.3287264108657837,0.8241257071495056,1.410698652267456,2.001030683517456,2.394545793533325,2.833413600921631,2.7487049102783203,4.733707427978516
304930.43619363866,0.2395821362733841,0.6250247955322266,0.891273021697998,0.9588725566864014,0.5339840054512024,0.19620497524738312,-0.06976508349180222,0.022905783727765083
304930.4401936386,0.3731456995010376,0.9580260515213013,1.2739992141723633,1.1743687391281128,0.400490403175354,-0.06937860697507858,-0.1294192373752594,0.7588191628456116
304930.4441936386,0.42981523275375366,1.1059869527816772,1.4742918014526367,1.3614237308502197,0.4864477813243866,-0.0822150781750679,-0.21325638890266418,0.8465275168418884
304930.44819363864,0.2518118619918823,0.5884845852851868,0.5055081248283386,0.07605575025081635,-0.308545857667923,0.33110788464546204,1.5105464458465576,2.443788766860962
304930.4521936386,0.37366992235183716,0.747539758682251,0.41745519638061523,-0.05487078055739403,0.06823022663593292,1.3542420864105225,2.4665074348449707,2.123192548751831
304930.4561936386,0.46452048420906067,0.8163325190544128,0.22238792479038239,-0.19115585088729858,0.6119063496589661,2.438652992248535,3.036773204803467,1.2065287828445435
304930.46019363863,0.5286530256271362,0.9246149063110352,0.2419867366552353,-0.24721230566501617,0.6813306212425232,2.8171849250793457,3.592317819595337,1.356804609298706
304930.46419363865,0.2913779020309448,0.3225896656513214,-0.10882063210010529,0.1694805771112442,1.2088121175765991,1.3079197406768799,0.18785275518894196,0.09519743174314499
304930.4681936386,0.41183358430862427,0.32951897382736206,-0.14028850197792053,0.7538288235664368,1.694114327430725,0.9298487901687622,0.3857804834842682,1.50356125831604
304930.4721936386,0.49576911330223083,0.27522706985473633,-0.1191367655992508,1.385203242301941,1.952004313468933,0.29373106360435486,0.7264237999916077,2.9314403533935547
304930.47619363863,0.5632740259170532,0.3096711337566376,-0.1454465687274933,1.5894732475280762,2.261317491531372,0.26455092430114746,0.7302055358886719,3.5416228771209717
304930.48019363865,0.2809431850910187,0.01734062470495701,0.19205902516841888,1.108235478401184,0.2521991729736328,0.19883880019187927,2.0865468978881836,0.8353374600410461
304930.4841936386,0.3824772834777832,-0.04383258894085884,0.5136772394180298,1.3845747709274292,-0.04425472393631935,1.102534532546997,2.3357174396514893,0.676917314529419
304930.4881936386,0.44406038522720337,-0.11562147736549377,0.8475470542907715,1.4321842193603516,-0.37449023127555847,2.066588878631592,2.1534781455993652,0.5542174577713013
304930.49219363864,0.5050726532936096,-0.13397116959095,0.9733730554580688,1.6394779682159424,-0.45967575907707214,2.4234421253204346,2.445885419845581,0.53108811378479
304930.49619363865,0.23623980581760406,-0.08470097184181213,0.8346743583679199,0.22509458661079407,0.4857865273952484,1.2988404035568237,-0.5020689964294434,2.2255218029022217
304930.5001936386,0.30404719710350037,-0.07505857199430466,1.1669588088989258,0.08156881481409073,1.2530062198638916,1.0929752588272095,0.42863884568214417,2.436687707901001
304930.5041936386,0.3359655737876892,-0.03876427188515663,1.366487979888916,-0.10101046413183212,2.026615858078003,0.6028870344161987,1.734994649887085,2.058211088180542
304930.50819363864,0.38121065497398376,-0.039927564561367035,1.5540177822113037,-0.1378917247056961,2.3189220428466797,0.6475592851638794,1.978941798210144,2.353180408477783
304930.51219363866,0.15662698447704315,0.12308723479509354,0.6334845423698425,0.058374810963869095,1.3052737712860107,-0.07333413511514664,1.870609164237976,0.20002403855323792
304930.5161936386,0.1888533979654312,0.29726850986480713,0.6170580983161926,0.5447429418563843,1.0314279794692993,0.8465545177459717,1.3915376663208008,1.533194661140442
304930.52019363863,0.19600167870521545,0.4763941764831543,0.47974202036857605,1.0984971523284912,0.4744928479194641,1.967706561088562,0.4013475477695465,3.1630325317382812
304930.52419363864,0.22181226313114166,0.5435197949409485,0.5330356955528259,1.2636348009109497,0.5167198777198792,2.265045642852783,0.4474080801010132,3.5543594360351562
304930.52819363866,0.07231755554676056,0.4612857401371002,-0.0782354548573494,1.1899176836013794,-0.24740993976593018,1.3942553997039795,0.12267297506332397,1.3626618385314941
304930.5321936386,0.07282079756259918,0.7150008678436279,-0.18043455481529236,1.566304087638855,0.16464024782180786,1.1258816719055176,1.328463077545166,0.8929285407066345
304930.53619363863,0.05851365253329277,0.910722553730011,-0.266316682100296,1.7176940441131592,0.7322116494178772,0.48801082372665405,2.681140422821045,0.23262232542037964
304930.54019363865,0.06637538969516754,1.037696123123169,-0.31579139828681946,1.969907522201538,0.8375982046127319,0.565534770488739,3.0753331184387207,0.1800481528043747
304930.54419363866,-0.007080018520355225,0.6398900151252747,0.15130984783172607,0.25082823634147644,1.4839422702789307,0.1420384645462036,0.8156342506408691,2.3142504692077637
304930.5481936386,-0.02398493140935898,0.9582980275154114,0.37036240100860596,0.17295244336128235,2.2422289848327637,0.5845947265625,0.4729744791984558,4.708498477935791
304930.55219363864,-0.02713213488459587,1.107648253440857,0.42046019434928894,0.19556212425231934,2.563253879547119,0.6416708827018738,0.5883877873420715,5.2339348793029785
304930.55619363865,-0.0379093661904335,0.46127015352249146,0.6011281609535217,-0.12916482985019684,0.766972005367279,1.7098705768585205,-0.13277298212051392,0.8733750581741333
304930.5601936386,-0.060638297349214554,0.5505397915840149,1.0528056621551514,0.04371197894215584,0.3686104118824005,2.126835346221924,1.0011919736862183,0.44333523511886597
304930.5641936386,-0.07997380197048187,0.5619038343429565,1.4417372941970825,0.32346853613853455,-0.21515198051929474,2.168097496032715,2.2376973628997803,0.1902931034564972
304930.56819363864,-0.0904633179306984,0.6384250521659851,1.6474918127059937,0.35541051626205444,-0.28090497851371765,2.5249457359313965,2.650876522064209,-0.007853270508348942
304930.57219363865,-0.04632773995399475,0.1569998413324356,0.8077667355537415,0.8327900767326355,-0.042490404099226,-0.08919966220855713,1.3156764507293701,1.864068627357483
304930.5761936386,-0.057140979915857315,0.106369748711586,0.9594455361366272,1.3856940269470215,0.6809433102607727,-0.014944883063435555,0.942398190498352,2.0379087924957275
304930.5801936386,-0.059182554483413696,0.01747649535536766,0.9693507552146912,1.8249797821044922,1.5278007984161377,0.19936791062355042,0.3453811705112457,1.6961711645126343
304930.58419363864,-0.06707713007926941,0.01648227870464325,1.1057655811309814,2.0868289470672607,1.753973364830017,0.14662878215312958,0.32192888855934143,1.9606260061264038
304930.58819363866,-0.015027874149382114,-0.08628241717815399,0.1982734501361847,0.861812174320221,1.360305666923523,1.437443494796753,0.8731937408447266,-0.20735569298267365
304930.5921936386,0.00010856188600882888,-0.10744579881429672,0.07347608357667923,0.7366482615470886,1.4931201934814453,2.056520700454712,2.0292835235595703,1.1142936944961548
304930.59619363863,0.020717931911349297,-0.11130478978157043,-0.10226008296012878,0.43265241384506226,1.3216127157211304,2.415982961654663,3.0640358924865723,2.6100387573242188
304930.60019363865,0.024094248190522194,-0.12915149331092834,-0.12533444166183472,0.47618043422698975,1.5013251304626465,2.8214879035949707,3.5632760524749756,3.0362093448638916
304930.60419363866,0.043972764164209366,-0.021884487941861153,-0.17496035993099213,-0.1855013519525528,-0.16041217744350433,0.21429283916950226,0.4508506953716278,1.1250386238098145
304930.6081936386,0.09276068210601807,0.06977472454309464,-0.03751660883426666,-0.07973680645227432,-0.0913316085934639,0.09546098113059998,0.10081448405981064,0.6435668468475342
304930.61219363863,0.1405429244041443,0.18290160596370697,0.16276519000530243,0.1069478988647461,0.0566493384540081,0.0128607964143157,-0.15554267168045044,-0.010556614957749844
304930.61619363865,0.1602896749973297,0.20879504084587097,0.19299101829528809,0.11565016210079193,0.021902406588196754,-0.06886206567287445,-0.35431918501853943,-0.11781462281942368
304930.62019363866,0.12858761847019196,0.2930424213409424,0.47703689336776733,0.7155088186264038,0.9675832390785217,1.2070517539978027,1.6035643815994263,1.9496320486068726
304930.6241936386,0.21365858614444733,0.5295751094818115,0.8830023407936096,1.3217856884002686,1.6191728115081787,2.0327205657958984,2.6087307929992676,2.4409995079040527
304930.62819363864,0.2869414985179901,0.7425896525382996,1.2497225999832153,1.8312008380889893,2.1069459915161133,2.6641714572906494,3.332508087158203,2.391268491744995
304930.63219363865,0.32627105712890625,0.8463220596313477,1.4259113073349,2.127370834350586,2.428900957107544,3.105520725250244,3.8054449558258057,2.834594249725342
304930.63619363867,0.21215485036373138,0.5493611097335815,0.8844543099403381,1.0188052654266357,0.7091076374053955,0.3486986756324768,-0.18945646286010742,-0.5421806573867798
304930.6401936386,0.32493096590042114,0.7965784668922424,1.0958251953125,0.9633152484893799,0.5173469185829163,0.19973409175872803,0.0927986204624176,0.7782015800476074
304930.64419363864,0.4128808379173279,0.9637253880500793,1.149842381477356,0.7005664110183716,0.18735449016094208,0.06356605887413025,0.7082951664924622,2.461233377456665
304930.64819363866,0.4703691899776459,1.0964981317520142,1.3067742586135864,0.7788344025611877,0.18665537238121033,0.010045343078672886,0.7784408926963806,2.8146212100982666
304930.65219363867,0.26665225625038147,0.5461904406547546,0.30760326981544495,-0.1920693963766098,-0.05591907352209091,1.1137189865112305,2.2334048748016357,1.4143257141113281
304930.6561936386,0.39077892899513245,0.6697103381156921,0.1703982800245285,-0.12869125604629517,0.6977695226669312,2.0027613639831543,2.2253901958465576,0.8773347735404968
304930.66019363864,0.48026129603385925,0.7064073085784912,-0.04494887590408325,0.013655523769557476,1.5945369005203247,2.6584250926971436,1.6334114074707031,0.09289512038230896
304930.66419363866,0.5466283559799194,0.801075279712677,-0.058616477996110916,-0.0017275962745770812,1.8287073373794556,3.1029903888702393,1.8916417360305786,-0.054094597697257996
304930.6681936387,0.29406923055648804,0.237685427069664,-0.17062237858772278,0.5441359281539917,1.3164771795272827,0.4855770468711853,-0.21221356093883514,1.358475685119629
304930.67219363863,0.40937167406082153,0.20669829845428467,-0.0997333899140358,1.1507593393325806,1.4617905616760254,0.21050971746444702,0.6974928379058838,3.4561879634857178
304930.67619363865,0.48518916964530945,0.12446430325508118,0.023889103904366493,1.7091388702392578,1.3123571872711182,-0.05867304280400276,1.7799456119537354,5.335468769073486
304930.68019363866,0.5506970286369324,0.13810822367668152,0.027314139530062675,1.9870789051055908,1.519528865814209,-0.1328417956829071,2.0549192428588867,6.443061828613281
304930.6841936387,0.2712775766849518,-0.049669861793518066,0.360248327255249,1.0516942739486694,-0.09653811901807785,0.7984828352928162,1.698089361190796,-0.11101764440536499
304930.68819363863,0.3693579435348511,-0.10017289966344833,0.7710483074188232,1.0860580205917358,0.001788825262337923,1.7459172010421753,1.2583649158477783,0.3242461681365967
304930.69219363865,0.4276870787143707,-0.1448403000831604,1.1736217737197876,0.8943919539451599,0.16148415207862854,2.5951409339904785,0.3183766007423401,1.1638569831848145
304930.69619363867,0.48587238788604736,-0.1673094630241394,1.3353952169418335,1.0125315189361572,0.15785473585128784,2.985480546951294,0.35475414991378784,1.257541537284851
304930.7001936387,0.21846094727516174,-0.07157684862613678,0.8937286734580994,-0.10879811644554138,1.0044633150100708,0.7797953486442566,0.10014568269252777,2.0902717113494873
304930.70419363864,0.2780982255935669,-0.011332093738019466,1.201523780822754,-0.19285285472869873,1.7521857023239136,0.40425899624824524,1.5259194374084473,1.6479686498641968
304930.70819363865,0.3042110502719879,0.06982016563415527,1.359178066253662,-0.20009800791740417,2.3616602420806885,-0.06686683744192123,3.057631254196167,0.8219262957572937
304930.71219363867,0.3449886441230774,0.07919663190841675,1.5500913858413696,-0.2606268525123596,2.6855480670928955,-0.15607121586799622,3.5799028873443604,0.8513259887695312
304930.7161936387,0.13750900328159332,0.2721930742263794,0.3753502070903778,0.6024205684661865,0.6288461089134216,0.9329741597175598,0.9251734614372253,1.3034805059432983
304930.72019363864,0.19085480272769928,0.4758700728416443,0.4256010949611664,1.1611522436141968,0.5165197849273682,2.0319387912750244,0.5792199969291687,2.9323577880859375
304930.72419363866,0.22028803825378418,0.5442036390304565,0.4969966411590576,1.3214499950408936,0.6071392893791199,2.314711093902588,0.6932169198989868,3.3282535076141357
304930.7281936387,0.061017878353595734,0.31525662541389465,-0.02421795390546322,0.7657560110092163,-0.3241618275642395,1.122330665588379,-0.0026910146698355675,1.7121179103851318
304930.7321936387,0.04568055272102356,0.5838133096694946,-0.11877182126045227,1.2128705978393555,0.14569295942783356,0.8265866041183472,1.4682964086532593,0.34263747930526733
304930.73619363864,0.05359545350074768,0.9014917612075806,-0.17197071015834808,1.6654870510101318,0.6464064121246338,0.7704235911369324,2.7210097312927246,0.3027459979057312
304930.74019363866,0.0631098598241806,1.036917805671692,-0.21242168545722961,1.9369699954986572,0.722915530204773,0.8977596163749695,3.164048671722412,0.27834007143974304
304930.7441936387,-0.004117927514016628,0.5710818767547607,0.08013258129358292,0.3403947949409485,1.4397510290145874,-0.10947676748037338,1.342318058013916,1.6627501249313354
304930.74819363863,-0.021871572360396385,0.7698088884353638,0.3662849962711334,0.10796990990638733,1.8347938060760498,0.5302531719207764,0.6750063896179199,2.5188028812408447
304930.75219363865,-0.04216768220067024,0.880761444568634,0.6800199747085571,-0.19767962396144867,1.9628357887268066,1.3622231483459473,-0.20077306032180786,2.8747549057006836
304930.75619363866,-0.04744194447994232,1.0079315900802612,0.7772924900054932,-0.2594120502471924,2.2396326065063477,1.5658801794052124,-0.38546571135520935,3.437584161758423
304930.7601936387,-0.04013534262776375,0.4098297655582428,0.7138856649398804,-0.007740050088614225,0.16552701592445374,1.5874186754226685,0.8425655961036682,-0.48515939712524414
304930.76419363864,-0.06731263548135757,0.4504883289337158,1.1298636198043823,0.39311593770980835,-0.11351287364959717,1.596913456916809,2.676806926727295,0.4157756567001343
304930.76819363865,-0.09028167277574539,0.41808152198791504,1.45709228515625,0.8767091631889343,-0.38710033893585205,1.2366383075714111,4.6648101806640625,1.638132929801941
304930.77219363867,-0.10415040701627731,0.47157442569732666,1.6656414270401,0.995125412940979,-0.4883776009082794,1.3986631631851196,5.307440280914307,1.8807417154312134
304930.7761936387,-0.03898408263921738,0.07334870100021362,0.7470517754554749,1.0768001079559326,0.5203672051429749,-0.10833720862865448,0.7690287828445435,1.9981498718261719
304930.78019363864,-0.046867113560438156,0.01490943506360054,0.7782882452011108,1.4937360286712646,1.4256536960601807,0.4362657070159912,0.42841023206710815,1.3622440099716187
304930.78419363865,-0.04813611879944801,-0.062490660697221756,0.669046938419342,1.7276606559753418,2.3466038703918457,1.1748610734939575,0.17680785059928894,0.31564098596572876
304930.78819363867,-0.05439170449972153,-0.07814483344554901,0.7525786757469177,1.9638633728027344,2.7037856578826904,1.3108361959457397,0.09844286739826202,0.2500547766685486
304930.7921936387,-0.004233355168253183,-0.11203545331954956,-0.006327119190245867,0.48706889152526855,1.3304917812347412,1.7789511680603027,1.6927154064178467,1.0522592067718506
304930.79619363864,0.015241174958646297,-0.1337696760892868,-0.10607872158288956,0.32009533047676086,1.0726901292800903,1.841658592224121,2.273146629333496,3.6187655925750732
304930.80019363866,0.040555864572525024,-0.12955589592456818,-0.18570458889007568,0.048043448477983475,0.5056788921356201,1.515334129333496,2.3924546241760254,6.095848560333252
304930.8041936387,0.04581790044903755,-0.1475992500782013,-0.2339211106300354,0.04479112848639488,0.5589311122894287,1.7488532066345215,2.775350570678711,7.280065059661865
304930.8081936387,0.0633641928434372,0.04415152221918106,-0.00938761979341507,-0.09538125991821289,-0.3323129117488861,-0.06700287759304047,-0.49112164974212646,0.31144264340400696
304930.81219363865,0.12217367440462112,0.18367671966552734,0.2103155255317688,0.19437076151371002,0.12182722240686417,0.32464680075645447,-0.03273532912135124,0.7469429969787598
304930.81619363866,0.17751476168632507,0.3339771628379822,0.46958139538764954,0.5784274339675903,0.7234811186790466,0.8768417239189148,0.7496420741081238,1.4203951358795166
304930.8201936387,0.20257531106472015,0.3817688524723053,0.5321207642555237,0.6502376198768616,0.8341542482376099,0.9422990083694458,0.8193109631538391,1.5219130516052246
304930.8241936387,0.14982984960079193,0.3690115213394165,0.6355803608894348,1.0484553575515747,1.264789342880249,1.729946255683899,2.139116048812866,2.0677340030670166
304930.82819363865,0.24296793341636658,0.626322329044342,1.0508320331573486,1.5360147953033447,1.6716500520706177,2.0264604091644287,1.9418669939041138,1.6356821060180664
304930.83219363866,0.3210104703903198,0.8469124436378479,1.3920758962631226,1.8622915744781494,1.858558177947998,1.874234676361084,1.1853594779968262,0.5538877248764038
304930.8361936387,0.36584335565567017,0.9679736495018005,1.6004811525344849,2.130504846572876,2.1333394050598145,2.1536049842834473,1.3736181259155273,0.6111560463905334
304930.8401936387,0.2603726387023926,0.6302858591079712,0.8244417309761047,0.5533589124679565,0.06726482510566711,-0.29052597284317017,0.2537252604961395,1.0949032306671143
304930.84419363865,0.401300847530365,0.933090329170227,1.1286505460739136,0.5843175649642944,-0.20211564004421234,-0.40793895721435547,0.8185539841651917,2.5800414085388184
304930.84819363867,0.4615805149078369,1.076413631439209,1.3079513311386108,0.6875772476196289,-0.23645859956741333,-0.48389026522636414,0.8835341334342957,2.9085140228271484
304930.8521936387,0.2668987214565277,0.514809250831604,0.29170072078704834,-0.1416863352060318,-0.015540091320872307,1.0711873769760132,2.038539171218872,1.7895430326461792
304930.85619363864,0.39194634556770325,0.6428940892219543,0.18456996977329254,-0.17156413197517395,0.6990956664085388,2.0431339740753174,2.096271514892578,1.1192073822021484
304930.86019363865,0.48243001103401184,0.6842226982116699,0.01933833211660385,-0.13525556027889252,1.538787603378296,2.8267929553985596,1.5876655578613281,0.15131767094135284
304930.86419363867,0.5480942726135254,0.778479814529419,0.010259795002639294,-0.17624224722385406,1.7541981935501099,3.299828290939331,1.8164032697677612,0.028325308114290237
304930.8681936387,0.2958449721336365,0.235481858253479,-0.17022499442100525,0.5606773495674133,1.376421570777893,0.5068874359130859,-0.4703538417816162,1.1954814195632935
304930.87219363864,0.4093594551086426,0.2040891796350479,-0.11775916069746017,1.1953182220458984,1.4580832719802856,0.03719789907336235,0.5961920022964478,2.231316089630127
304930.87619363866,0.4820381700992584,0.12438097596168518,-0.010076053440570831,1.7806947231292725,1.2559645175933838,-0.4810088872909546,1.9635239839553833,2.9383997917175293
304930.8801936387,0.548305869102478,0.13708260655403137,-0.01414195541292429,2.0620224475860596,1.4319226741790771,-0.6262328028678894,2.246736526489258,3.553875684738159
304930.8841936387,0.2761286497116089,-0.0730065107345581,0.34952399134635925,1.1256917715072632,-0.2737914025783539,0.7665875554084778,1.806836485862732,-0.25285977125167847
304930.88819363865,0.3703263998031616,-0.1090129166841507,0.7751992344856262,1.1527773141860962,-0.1396510899066925,1.7128957509994507,1.2201533317565918,0.3655731678009033
304930.89219363866,0.42567551136016846,-0.12862911820411682,1.1940865516662598,0.9552434086799622,0.13349264860153198,2.6006453037261963,0.16641150414943695,1.2751988172531128
304930.8961936387,0.48242825269699097,-0.14653915166854858,1.363996148109436,1.0705175399780273,0.15278887748718262,2.9879066944122314,0.13070441782474518,1.374537706375122
304930.9001936387,0.21320462226867676,-0.06453751027584076,0.844824492931366,-0.09499260783195496,0.9876378774642944,0.8102389574050903,0.1475459784269333,1.8546417951583862
304930.90419363865,0.2742159068584442,-0.011926274746656418,1.1243939399719238,-0.1864013522863388,1.765071988105774,0.4303309917449951,2.067021131515503,1.5011972188949585
304930.90819363866,0.30263325572013855,0.06610729545354843,1.2739121913909912,-0.20825889706611633,2.3846683502197266,-0.10815399140119553,4.390519142150879,0.6606659889221191
304930.9121936387,0.3438839912414551,0.07533180713653564,1.4507248401641846,-0.27669456601142883,2.782949447631836,-0.14781230688095093,4.9324631690979,0.7240220904350281
304930.9161936387,0.1343483328819275,0.20464669167995453,0.42211219668388367,0.37588632106781006,0.7912079691886902,0.5818480849266052,2.2890501022338867,0.6557722091674805
304930.92019363865,0.1583881974220276,0.4152422547340393,0.3317995071411133,0.9642261266708374,0.3662261962890625,1.6154903173446655,1.488030195236206,3.3303983211517334
304930.92419363867,0.16030511260032654,0.6176363825798035,0.14507874846458435,1.5371475219726562,-0.24331535398960114,2.6267597675323486,0.34612151980400085,6.0368475914001465
304930.9281936387,0.1810826063156128,0.7046234011650085,0.16056422889232635,1.7806482315063477,-0.3244291841983795,3.065638780593872,0.249731183052063,7.211545944213867
304930.9321936387,0.05007025599479675,0.5267468094825745,-0.0812114030122757,1.089986801147461,0.0011337195755913854,0.9438482522964478,1.0728967189788818,0.5438999533653259
304930.93619363866,0.04533073678612709,0.7951785326004028,-0.10320769995450974,1.2307279109954834,0.6629595160484314,0.5687751770019531,1.9199827909469604,0.5962727665901184
304930.9401936387,0.029743028804659843,0.9940840601921082,-0.10066487640142441,1.1583936214447021,1.4088494777679443,-0.024362582713365555,2.532735586166382,0.9062337279319763
304930.9441936387,0.03301374986767769,1.1335049867630005,-0.12358110398054123,1.3190460205078125,1.624975323677063,-0.059762708842754364,2.9464635848999023,0.9511905312538147
304930.9481936387,-0.016246918588876724,0.5707178711891174,0.24535074830055237,0.05371406301856041,1.2442644834518433,0.3208179175853729,0.12167435884475708,2.184957981109619
304930.95219363866,-0.0362553708255291,0.735999584197998,0.621192216873169,-0.10340529680252075,1.3881689310073853,1.2337144613265991,0.2604168951511383,1.7779515981674194
304930.9561936387,-0.05513811483979225,0.819846510887146,1.008249044418335,-0.2693694233894348,1.2624729871749878,2.154010772705078,0.6577339172363281,0.703574001789093
304930.9601936387,-0.06267298012971878,0.9323461651802063,1.153480887413025,-0.3227742314338684,1.4525129795074463,2.5177454948425293,0.6485059857368469,0.8521803021430969
304930.9641936387,-0.04818597063422203,0.3192359507083893,0.8319844603538513,0.19015710055828094,-0.06277153640985489,1.1097164154052734,2.6954283714294434,-0.23445755243301392
304930.96819363866,-0.06776075065135956,0.3302270770072937,1.1901003122329712,0.7246482968330383,-0.005968159530311823,0.8125399351119995,2.697925329208374,1.5339797735214233
304930.9721936387,-0.0810219794511795,0.2824162244796753,1.4230899810791016,1.2938814163208008,0.16582050919532776,0.2997433841228485,2.198381185531616,3.507689952850342
304930.9761936387,-0.09094095230102539,0.3165864944458008,1.6182270050048828,1.4844439029693604,0.16146600246429443,0.2496473342180252,2.4573514461517334,4.099898815155029
304930.9801936387,-0.03828635811805725,0.006932984571903944,0.5412948727607727,1.1146972179412842,1.006797194480896,0.16256843507289886,-0.09587032347917557,0.7535708546638489
304930.98419363867,-0.04056645184755325,-0.061088815331459045,0.5158520936965942,1.325787901878357,1.7365899085998535,1.1525158882141113,0.38821202516555786,0.35395440459251404
304930.9881936387,-0.03403385356068611,-0.12801116704940796,0.3796587884426117,1.3449896574020386,2.295820474624634,2.2879817485809326,1.118320345878601,0.06819182634353638
304930.9921936387,-0.03930365666747093,-0.15624678134918213,0.4251735508441925,1.5271426439285278,2.6779539585113525,2.6329665184020996,1.239776372909546,-0.13381825387477875
304930.9961936387,0.018082179129123688,-0.0772702693939209,-0.09683462232351303,0.11174072325229645,0.6267675757408142,1.2770265340805054,1.9027928113937378,2.211122512817383
304931.00019363867,0.04052776098251343,-0.10443364083766937,-0.15099765360355377,0.002353004412725568,0.5163634419441223,1.4278098344802856,2.5026936531066895,3.127288341522217
304931.0041936387,0.04571745917201042,-0.12218251824378967,-0.17546996474266052,-0.005807078909128904,0.6137016415596008,1.6941274404525757,2.981675386428833,3.6984241008758545
304931.0081936387,0.0646314024925232,0.05194908007979393,-0.038563333451747894,-0.06854509562253952,-0.2433054894208908,-0.31866493821144104,-0.16820412874221802,-0.24870650470256805
304931.01219363866,0.12296981364488602,0.1860852986574173,0.2031492292881012,0.22936344146728516,0.14970193803310394,0.21380026638507843,0.3034200668334961,0.13006405532360077
304931.0161936387,0.17764294147491455,0.33369961380958557,0.4831133186817169,0.619325578212738,0.6885212659835815,0.943591296672821,1.0328248739242554,0.8983999490737915
304931.0201936387,0.20257128775119781,0.3811853528022766,0.5542187094688416,0.701971709728241,0.7732964158058167,1.0598578453063965,1.099636197090149,0.9217358827590942
304931.0241936387,0.1512088179588318,0.3723393976688385,0.6740814447402954,1.0647315979003906,1.2979570627212524,1.5893336534500122,1.9307076930999756,2.1489336490631104
304931.02819363866,0.2429293543100357,0.6219956874847412,1.0779145956039429,1.574824571609497,1.804070234298706,1.8579891920089722,1.897225260734558,1.8583722114562988
304931.0321936387,0.3188630938529968,0.8295384645462036,1.3911958932876587,1.9258430004119873,2.0442001819610596,1.7441561222076416,1.267924189567566,0.9808228611946106
304931.0361936387,0.3629508912563324,0.9475300908088684,1.5914863348007202,2.1883997917175293,2.3561837673187256,2.0064659118652344,1.486619234085083,1.0774670839309692
304931.0401936387,0.22609762847423553,0.5669493675231934,0.7491838932037354,0.6708821654319763,0.1838889867067337,-0.29957783222198486,-0.3292028307914734,0.28835755586624146
304931.04419363866,0.3418520987033844,0.8030408024787903,0.867156445980072,0.4970235824584961,-0.01202341727912426,-0.10233592242002487,0.9075857996940613,1.5459506511688232
304931.0481936387,0.4301344156265259,0.9575039744377136,0.8461839556694031,0.17297546565532684,-0.164982408285141,0.3364291489124298,2.407529354095459,2.7373313903808594
304931.0521936387,0.48867982625961304,1.0935654640197754,0.9606010913848877,0.18304595351219177,-0.25305190682411194,0.31824392080307007,2.754187822341919,3.245012044906616
304931.0561936387,0.2800588607788086,0.4563167691230774,0.13938921689987183,-0.22373716533184052,0.5256201028823853,1.7008848190307617,1.527903437614441,0.39022132754325867
304931.06019363867,0.4041673243045807,0.543132483959198,-0.00011706476652761921,0.033829253166913986,1.2842721939086914,2.1789376735687256,1.1300023794174194,0.3576142191886902
304931.0641936387,0.493897408246994,0.5511594414710999,-0.1830185353755951,0.3765276074409485,1.9974766969680786,2.2407212257385254,0.3529287874698639,0.5283782482147217
304931.0681936387,0.5612928867340088,0.6236554384231567,-0.21749556064605713,0.4375174343585968,2.334784507751465,2.6018714904785156,0.3789019286632538,0.48227354884147644
304931.0721936387,0.28937461972236633,0.15746274590492249,-0.0954650267958641,0.8821871876716614,1.200878620147705,-0.10144364088773727,0.4295589029788971,2.279050588607788
304931.07619363867,0.40275681018829346,0.12287256866693497,0.06163513660430908,1.444617509841919,1.067894458770752,-0.08660323172807693,1.7501451969146729,2.506897211074829
304931.0801936387,0.4763372242450714,0.05441191792488098,0.2737105190753937,1.890529990196228,0.6828941702842712,0.10834485292434692,3.1248488426208496,2.0511279106140137
304931.0841936387,0.5427958369255066,0.058912504464387894,0.31675025820732117,2.1489739418029785,0.7429065704345703,0.07749957591295242,3.6451401710510254,2.5687291622161865
304931.0881936387,0.2603643536567688,-0.08912274986505508,0.5559816956520081,0.825375497341156,-0.3627972900867462,1.578497052192688,0.897887647151947,-0.22442050278186798
304931.0921936387,0.3465687930583954,-0.13478833436965942,0.9732401967048645,0.6717372536659241,0.057235509157180786,2.1177406311035156,0.31791767477989197,1.185111165046692
304931.0961936387,0.39640381932258606,-0.17357900738716125,1.3301169872283936,0.33335933089256287,0.6635099649429321,2.30631160736084,-0.3842717409133911,2.751767873764038
304931.1001936387,0.4501272439956665,-0.2005714476108551,1.5174566507339478,0.3684321641921997,0.7630793452262878,2.6315739154815674,-0.6034868955612183,3.207418918609619
304931.1041936387,0.19689863920211792,-0.018079111352562904,0.7814254760742188,-0.21518270671367645,1.233176350593567,0.146709606051445,1.562268614768982,1.065760850906372
304931.1081936387,0.24779155850410461,0.08422859013080597,0.9599363207817078,-0.10428158193826675,1.722618579864502,0.0587821900844574,2.235171318054199,0.568363606929779
304931.1121936387,0.26831015944480896,0.2066946178674698,1.003386378288269,0.09323302656412125,1.9780118465423584,0.06014493480324745,2.691214084625244,-0.05585708096623421
304931.1161936387,0.30384910106658936,0.23778671026229858,1.1414207220077515,0.08188480138778687,2.2861275672912598,-0.02922327257692814,3.1095476150512695,-0.22419632971286774
304931.1201936387,0.11301959306001663,0.2927688956260681,0.23294785618782043,0.7197064757347107,0.21979352831840515,1.297818899154663,0.10663320869207382,1.7302652597427368
304931.1241936387,0.12822267413139343,0.5377428531646729,0.08196694403886795,1.3344026803970337,-0.01672869175672531,2.047945976257324,-0.0009266336564905941,2.2575788497924805
304931.1281936387,0.12388725578784943,0.7616265416145325,-0.1245182454586029,1.857263445854187,-0.25448915362358093,2.533865213394165,0.10704393684864044,2.321141242980957
304931.1321936387,0.14012689888477325,0.8685560822486877,-0.1543910652399063,2.1552135944366455,-0.324201762676239,2.9635186195373535,-0.014954456128180027,2.816596746444702
304931.1361936387,0.028270184993743896,0.5428476333618164,-0.16549955308437347,1.010591983795166,0.4075036644935608,0.3705085515975952,1.782806158065796,-0.4045504033565521
304931.1401936387,0.018540916964411736,0.7876506447792053,-0.08455751091241837,0.9249753952026367,1.1905368566513062,0.12336722016334534,2.277329444885254,0.7586767673492432
304931.1441936387,0.002199906622990966,0.9641605019569397,0.0715961903333664,0.6399468779563904,1.977112889289856,-0.09667479991912842,2.2619340419769287,2.193681001663208
304931.1481936387,0.0025561447255313396,1.097555160522461,0.07185717672109604,0.7151275873184204,2.277369976043701,-0.24918034672737122,2.662463426589966,2.539116621017456
304931.1521936387,-0.02239752560853958,0.5059452652931213,0.42280134558677673,-0.21102730929851532,1.1534839868545532,0.9996986985206604,-0.4266911447048187,1.5905686616897583
304931.1561936387,-0.050197821110486984,0.6325491070747375,0.8598973751068115,-0.1666427105665207,1.0190790891647339,1.8931585550308228,0.18546751141548157,0.9213302731513977
304931.1601936387,-0.07743913680315018,0.6779361963272095,1.2719460725784302,-0.024077283218503,0.6395415663719177,2.6095402240753174,1.1448191404342651,-0.0638841837644577
304931.1641936387,-0.08918015658855438,0.7708441615104675,1.4595566987991333,-0.0339241586625576,0.7082638740539551,3.0775179862976074,1.2976386547088623,-0.19680286943912506
304931.16819363873,-0.05112201347947121,0.21846750378608704,0.956355094909668,0.7117487788200378,-0.12637437880039215,0.4010123610496521,1.659096598625183,1.7487176656723022
304931.1721936387,-0.07836668193340302,0.26706409454345703,1.3728554248809814,1.281599998474121,0.07245863229036331,0.14767423272132874,2.1691486835479736,3.154083013534546
304931.1761936387,-0.09065906703472137,0.30838826298713684,1.5967785120010376,1.4698882102966309,0.09175045043230057,0.1849668323993683,2.6031532287597656,3.729201078414917
304931.1801936387,-0.035391248762607574,-0.012612256221473217,0.5758919715881348,1.1511212587356567,0.9395385980606079,0.19168689846992493,-0.28625723719596863,0.715386152267456
304931.1841936387,-0.03979485109448433,-0.07972188293933868,0.5335715413093567,1.3566607236862183,1.6707537174224854,1.0422531366348267,0.256386399269104,0.3712262511253357
304931.1881936387,-0.03674319386482239,-0.1509653627872467,0.38093996047973633,1.3678935766220093,2.2595291137695312,1.9864131212234497,1.0578476190567017,0.1035551205277443
304931.1921936387,-0.04091303050518036,-0.1717625856399536,0.4236268699169159,1.5548635721206665,2.63297438621521,2.2948689460754395,1.1957266330718994,-0.031657833606004715
304931.1961936387,0.008310535922646523,-0.10050631314516068,-0.08535587787628174,0.13338111340999603,0.709388017654419,1.4198777675628662,1.8796765804290771,2.1968328952789307
304931.2001936387,0.0393451526761055,-0.07992278039455414,-0.1691814363002777,-0.0509563572704792,0.45939749479293823,1.103811502456665,1.703005075454712,2.935539960861206
304931.2041936387,0.0728808119893074,-0.03116569109261036,-0.2170296162366867,-0.2278849184513092,0.06898713111877441,0.4679335057735443,1.055176019668579,2.9623496532440186
304931.2081936387,0.08299709111452103,-0.040260665118694305,-0.2685532569885254,-0.2959318459033966,0.04986152797937393,0.476825475692749,1.2054916620254517,3.6644749641418457
304931.2121936387,0.08516387641429901,0.12444473803043365,0.14628848433494568,0.11768676340579987,-0.033367007970809937,0.05487022548913956,-0.21773293614387512,-0.13674728572368622
304931.2161936387,0.15292416512966156,0.29911717772483826,0.46498215198516846,0.6097486615180969,0.6704513430595398,0.7681249976158142,0.9331574440002441,1.0510799884796143
304931.2201936387,0.21437756717205048,0.47538140416145325,0.8113694787025452,1.1658138036727905,1.4819707870483398,1.6293056011199951,2.2817649841308594,2.4046096801757812
304931.2241936387,0.24433453381061554,0.5432213544845581,0.9226383566856384,1.3322314023971558,1.7111128568649292,1.8822733163833618,2.6358964443206787,2.8164031505584717
304931.22819363873,0.1704840511083603,0.45292896032333374,0.8050904273986816,1.1104674339294434,1.260094404220581,1.541001796722412,1.8108490705490112,1.2593607902526855
304931.2321936387,0.27179262042045593,0.7060832381248474,1.1963084936141968,1.509696125984192,1.3951140642166138,1.4196879863739014,1.0399274826049805,0.7974550724029541
304931.2361936387,0.35465705394744873,0.8996280431747437,1.4815706014633179,1.6875327825546265,1.2585166692733765,0.9456505179405212,-0.2273089438676834,0.20441505312919617
304931.2401936387,0.40379178524017334,1.0280104875564575,1.6869009733200073,1.9441099166870117,1.4481987953186035,1.0342674255371094,-0.24595457315444946,0.03922500088810921
304931.24419363873,0.24687150120735168,0.583208441734314,0.6439115405082703,0.3013472855091095,-0.23528900742530823,-0.0799873024225235,0.48161348700523376,1.6212183237075806
304931.2481936387,0.3647347092628479,0.7842825055122375,0.6574374437332153,0.10233654826879501,-0.2224476933479309,0.7279359698295593,1.8647758960723877,2.413335084915161
304931.2521936387,0.45263805985450745,0.8918697237968445,0.5374090671539307,-0.12846219539642334,-0.06184682250022888,1.7257585525512695,3.2832651138305664,2.7564034461975098
304931.2561936387,0.5143308043479919,1.012280821800232,0.6085923910140991,-0.19269324839115143,-0.12660691142082214,1.9475129842758179,3.8275725841522217,3.285160541534424
304931.26019363874,0.31835147738456726,0.3984096944332123,-0.0398261584341526,0.09369076043367386,1.2942702770233154,1.664158821105957,0.7297568321228027,0.32876744866371155
304931.2641936387,0.4851070046424866,0.5376798510551453,-0.1395573765039444,0.33468255400657654,2.2697901725769043,2.1276936531066895,0.5975329875946045,0.7154898643493652
304931.2681936387,0.5570675730705261,0.6221082806587219,-0.16691304743289948,0.36139196157455444,2.619497060775757,2.508383274078369,0.6585962772369385,0.7454166412353516
304931.2721936387,0.29481053352355957,0.15879495441913605,-0.13688765466213226,0.8956166505813599,1.2470210790634155,-0.035588204860687256,0.46218082308769226,2.4239516258239746
304931.2761936387,0.40895208716392517,0.10149669647216797,0.04252145066857338,1.4809520244598389,1.0388935804367065,0.12734389305114746,1.709472894668579,2.355363607406616
304931.2801936387,0.4835507869720459,0.006077252794057131,0.277222603559494,1.9455925226211548,0.5763281583786011,0.38587117195129395,2.989443302154541,1.5854449272155762
304931.2841936387,0.5498782396316528,0.0005974070518277586,0.31812939047813416,2.22301983833313,0.6352308392524719,0.3847978115081787,3.498386859893799,1.8376606702804565
304931.2881936387,0.262610524892807,-0.07256034761667252,0.5442441701889038,0.8817886710166931,-0.3139728903770447,1.327388048171997,1.0791810750961304,-0.042053259909152985
304931.2921936387,0.3486047089099884,-0.10368385165929794,0.9769626259803772,0.7563161849975586,0.1207050159573555,1.9746066331863403,0.7185552716255188,1.0948280096054077
304931.2961936387,0.3983607888221741,-0.12261448800563812,1.3621574640274048,0.4517683982849121,0.7237750887870789,2.3733224868774414,0.22454656660556793,2.3996729850769043
304931.3001936387,0.45127373933792114,-0.13940726220607758,1.5497462749481201,0.494477778673172,0.8185315728187561,2.76466965675354,0.16346897184848785,2.8060994148254395
304931.30419363873,0.19756528735160828,-0.03325816988945007,0.8958401083946228,-0.17309452593326569,1.3702366352081299,0.08167339116334915,1.2885842323303223,1.052181363105774
304931.3081936387,0.24832670390605927,0.06609650701284409,1.0707188844680786,-0.09336653351783752,1.7718795537948608,-0.09130939096212387,2.2171132564544678,0.5606959462165833
304931.3121936387,0.26889941096305847,0.1870538592338562,1.0840916633605957,0.07044418901205063,1.8807919025421143,-0.15062372386455536,2.8410303592681885,0.037136778235435486
304931.3161936387,0.30442291498184204,0.2144710123538971,1.2354978322982788,0.06503511965274811,2.1465816497802734,-0.2362828254699707,3.289525270462036,-0.11186058819293976
304931.32019363873,0.11333499103784561,0.29030847549438477,0.24447783827781677,0.6859371066093445,0.25410395860671997,1.2809442281723022,0.07345587015151978,2.136129140853882
304931.3241936387,0.129582941532135,0.5247644782066345,0.12937435507774353,1.3121687173843384,-0.006853148806840181,2.0602784156799316,0.0064437538385391235,3.3764591217041016
304931.3281936387,0.12637963891029358,0.7341811656951904,-0.03780950605869293,1.8954970836639404,-0.27906984090805054,2.5735995769500732,0.14276252686977386,3.991825819015503
304931.3321936387,0.14292992651462555,0.8412963151931763,-0.05654992163181305,2.155188798904419,-0.3956570625305176,3.0126726627349854,0.024689119309186935,4.82382869720459
304931.33619363874,0.03116973489522934,0.5696642398834229,-0.1082330197095871,0.9518113732337952,0.4613039195537567,0.30093297362327576,1.967726707458496,-0.6931576728820801
304931.3401936387,0.020029326900839806,0.8137093186378479,-0.01426769234240055,0.8846625089645386,1.241276502609253,0.07597724348306656,2.414813756942749,0.6606719493865967
304931.3441936387,0.0015099489828571677,0.982010006904602,0.12789590656757355,0.6061025857925415,2.017512559890747,-0.09328733384609222,2.2978832721710205,2.5013582706451416
304931.3481936387,0.0016091108554974198,1.118948221206665,0.1427450031042099,0.6846944689750671,2.331285238265991,-0.2219087779521942,2.712057113647461,2.8440163135528564
304931.35219363874,-0.02826005406677723,0.5180846452713013,0.4196736812591553,-0.21991102397441864,1.2470018863677979,1.0930850505828857,-0.5143972635269165,1.8269423246383667
304931.3561936387,-0.04667188599705696,0.6494956016540527,0.8178481459617615,-0.21494518220424652,1.064911127090454,2.0379815101623535,0.1776292324066162,1.0128523111343384
304931.3601936387,-0.0622209832072258,0.695713996887207,1.1863222122192383,-0.11449041962623596,0.6056760549545288,2.770294189453125,1.2202937602996826,-0.08813690394163132
304931.3641936387,-0.07086539268493652,0.7881784439086914,1.355982780456543,-0.16292282938957214,0.6604610681533813,3.2421183586120605,1.3797527551651,-0.2979123890399933
304931.36819363874,-0.05196377635002136,0.23589564859867096,0.9267797470092773,0.5417090654373169,-0.12755343317985535,0.5041965842247009,2.256517171859741,1.4344135522842407
304931.3721936387,-0.06537283211946487,0.21940194070339203,1.1623414754867554,1.1958516836166382,0.22440792620182037,0.061809711158275604,2.236638069152832,2.4476757049560547
304931.3761936387,-0.07171612977981567,0.15785172581672668,1.2374277114868164,1.833463430404663,0.691382884979248,-0.4367958903312683,1.6350243091583252,3.039584159851074
304931.38019363873,-0.08029250800609589,0.17379769682884216,1.4173468351364136,2.1000945568084717,0.7622823119163513,-0.5548500418663025,1.9485212564468384,3.5994250774383545
304931.38419363875,-0.025702912360429764,-0.048287391662597656,0.37335342168807983,1.0762156248092651,1.304860234260559,0.8264387249946594,-0.31327179074287415,0.07754546403884888
304931.3881936387,-0.020446747541427612,-0.10281147062778473,0.25840967893600464,1.1284860372543335,1.7768938541412354,1.7086818218231201,0.9537928700447083,0.7932593822479248
304931.3921936387,-0.008917713537812233,-0.1545742154121399,0.056562427431344986,0.9591643214225769,1.9928218126296997,2.438783884048462,2.505361557006836,1.82285737991333
304931.39619363873,-0.009728468023240566,-0.1836256980895996,0.06088929995894432,1.0809345245361328,2.330965995788574,2.834749698638916,2.8662972450256348,1.9378999471664429
304931.40019363875,0.023634158074855804,-0.06393641978502274,-0.18810546398162842,-0.07147463411092758,0.21134549379348755,0.7497212886810303,1.2819749116897583,1.8393269777297974
304931.4041936387,0.06512748450040817,-0.00566545594483614,-0.1486315131187439,-0.1498921513557434,-0.024996556341648102,0.3950513005256653,0.6686801910400391,1.4381401538848877
304931.4081936387,0.10835721343755722,0.07327275723218918,-0.05925670266151428,-0.21587853133678436,-0.24704903364181519,-0.08671524375677109,-0.29537561535835266,0.5811696648597717
304931.41219363874,0.123796746134758,0.08494400233030319,-0.06370686739683151,-0.2507515847682953,-0.332801878452301,-0.15698319673538208,-0.3902369737625122,0.5594249963760376
304931.41619363875,0.10739753395318985,0.20862668752670288,0.2944052815437317,0.3543315529823303,0.43568286299705505,0.4772814214229584,0.5949795842170715,0.571186900138855
304931.4201936387,0.18441541492938995,0.41714903712272644,0.6658098101615906,1.0138167142868042,1.289657711982727,1.469781517982483,1.7550827264785767,1.8896633386611938
304931.4241936387,0.2523321807384491,0.6153382658958435,1.0263835191726685,1.6901421546936035,2.1412768363952637,2.4444313049316406,2.864819049835205,3.072587251663208
304931.42819363874,0.28738853335380554,0.7042077779769897,1.1794013977050781,1.9435845613479614,2.4844253063201904,2.850545883178711,3.300727605819702,3.6116552352905273
