lsl_time,CZ,C3,CPZ3,FC4,FC3,CPZ4,C4,CPZ
305001.6317749035,0.0393335334956646,-0.09523860365152359,-0.19622305035591125,0.011382044292986393,0.372015118598938,1.1399897336959839,1.6889129877090454,2.3933494091033936
305001.6357749035,0.07118561118841171,-0.04055549576878548,-0.18245206773281097,-0.2095641940832138,-0.062438301742076874,0.5258674025535583,0.9520066976547241,2.1813459396362305
305001.63977490354,0.08115198463201523,-0.04515251889824867,-0.214023619890213,-0.25027769804000854,-0.13519775867462158,0.5479915142059326,1.1134240627288818,2.5912721157073975
305001.64377490355,0.08632230013608932,0.12362013757228851,0.10398596525192261,0.03943466767668724,-0.0018736422061920166,0.066091388463974,-0.031218891963362694,-0.19163696467876434
305001.6477749035,0.15348929166793823,0.2989345192909241,0.42094552516937256,0.5302959680557251,0.6996732354164124,0.9634210467338562,1.4333958625793457,1.6271992921829224
305001.6517749035,0.21386952698230743,0.47977373003959656,0.7680320739746094,1.0770031213760376,1.5353244543075562,2.06864857673645,3.0393526554107666,3.6998016834259033
305001.65577490354,0.24376671016216278,0.5472457408905029,0.8804475665092468,1.2382473945617676,1.7485556602478027,2.3462910652160645,3.6777660846710205,4.480050563812256
305001.65977490356,0.1723877638578415,0.4417361617088318,0.8198996186256409,1.107236623764038,1.3246456384658813,1.5353432893753052,1.4141852855682373,1.2789885997772217
305001.6637749035,0.27239274978637695,0.7098411321640015,1.2144360542297363,1.4685900211334229,1.4529169797897339,1.2316086292266846,0.9166610836982727,0.7999218702316284
305001.66777490353,0.35379722714424133,0.9286257028579712,1.4988106489181519,1.623622179031372,1.3006620407104492,0.5340923070907593,0.08842433989048004,0.09573841840028763
305001.67177490355,0.40256866812705994,1.060890793800354,1.7052665948867798,1.8508360385894775,1.5089014768600464,0.611017644405365,0.009659059345722198,0.04976597800850868
305001.67577490356,0.24398165941238403,0.5616136193275452,0.6786381006240845,0.3374464809894562,-0.23564943671226501,-0.26610705256462097,0.552112877368927,1.6258659362792969
305001.6797749035,0.36404281854629517,0.7549535036087036,0.6827183961868286,0.06336631625890732,-0.11294388025999069,0.544217050075531,1.557518720626831,2.344557285308838
305001.68377490353,0.454494446516037,0.8670893907546997,0.5481568574905396,-0.2940358817577362,0.12433061748743057,1.6258811950683594,2.5134518146514893,2.6086041927337646
305001.68777490355,0.5156852006912231,0.9839915633201599,0.6179527044296265,-0.3640989363193512,0.13078545033931732,1.846732497215271,2.9166100025177,3.0622174739837646
305001.69177490356,0.28145575523376465,0.4007026255130768,-0.007171250879764557,-0.04784012585878372,0.9633487462997437,1.6928226947784424,0.8121559619903564,-0.22870589792728424
305001.6957749035,0.4031558632850647,0.44443008303642273,-0.12341685593128204,0.36585989594459534,1.7240804433822632,1.6923385858535767,0.39432090520858765,0.6073093414306641
305001.69977490354,0.48930343985557556,0.415200412273407,-0.24303945899009705,0.8666141629219055,2.3391342163085938,1.2904534339904785,-0.07276295870542526,1.875844955444336
305001.70377490355,0.5552819967269897,0.4689810574054718,-0.2878376841545105,0.9891604781150818,2.724666118621826,1.4564303159713745,-0.14860646426677704,2.096961498260498
305001.70777490357,0.2842279374599457,0.0719384104013443,-0.01216705422848463,1.1299619674682617,0.7458736300468445,-0.170828178524971,1.2384917736053467,1.8734371662139893
305001.7117749035,0.39474618434906006,0.014555715955793858,0.24822965264320374,1.499843716621399,0.4932252764701843,0.3999226689338684,2.039201259613037,1.3642596006393433
305001.71577490354,0.4639863073825836,-0.05795145034790039,0.5567918419837952,1.6677476167678833,0.0997559055685997,1.2240620851516724,2.5673763751983643,0.4051128923892975
305001.71977490355,0.5286248326301575,-0.06885571032762527,0.6388659477233887,1.9001115560531616,0.08148285746574402,1.3729912042617798,3.0269601345062256,0.4113806188106537
305001.72377490357,0.24744552373886108,-0.127105712890625,0.7039893865585327,0.4717566967010498,0.11861027777194977,1.5639350414276123,0.017068075016140938,0.9488253593444824
305001.7277749035,0.3280009627342224,-0.13960467278957367,1.1233046054840088,0.2728452682495117,0.7627723217010498,1.6037321090698242,0.06533582508563995,2.370007276535034
305001.73177490354,0.3720127046108246,-0.12792600691318512,1.451938271522522,-0.013027876615524292,1.506508708000183,1.285771131515503,0.35418447852134705,3.5721843242645264
305001.73577490356,0.42182859778404236,-0.13960833847522736,1.6579934358596802,-0.053323592990636826,1.7148090600967407,1.4876976013183594,0.31973516941070557,4.263821125030518
305001.7397749036,0.17840155959129333,0.054024431854486465,0.7747558951377869,-0.17518889904022217,1.451589822769165,-0.2800656259059906,2.107853651046753,-0.08448369801044464
305001.74377490353,0.21979525685310364,0.18747340142726898,0.8271756768226624,0.17641392350196838,1.5917102098464966,0.21697531640529633,2.280144691467285,0.36542901396751404
305001.74777490355,0.2330775111913681,0.33400991559028625,0.743585467338562,0.6255151629447937,1.4003946781158447,0.8776461482048035,1.8860037326812744,1.1738032102584839
305001.75177490356,0.263847291469574,0.3815158009529114,0.8388773798942566,0.7194269299507141,1.607836365699768,0.9908199310302734,2.186823844909668,1.2543821334838867
305001.7557749036,0.09201788902282715,0.3753848373889923,0.06862203031778336,1.0201215744018555,-0.06346537917852402,1.6566565036773682,-0.49779370427131653,2.273142099380493
305001.75977490353,0.10096520185470581,0.6284682154655457,-0.04467237368226051,1.5283138751983643,-0.01771683245897293,1.8839397430419922,0.3830488920211792,1.8396472930908203
305001.76377490355,0.09364210814237595,0.8412057161331177,-0.17390181124210358,1.8923367261886597,0.09384050220251083,1.7101818323135376,1.5878949165344238,0.7537922859191895
305001.76777490356,0.10522934794425964,0.9623153209686279,-0.21173030138015747,2.1778831481933594,0.08868518471717834,1.9540281295776367,1.8085745573043823,0.8333694934844971
305001.7717749036,0.012369604781270027,0.5596687197685242,-0.05809253081679344,0.6948041319847107,0.9602845907211304,-0.19903552532196045,2.0792558193206787,0.6702446341514587
305001.77577490354,-0.001667576376348734,0.7783097624778748,0.12211919575929642,0.5149834752082825,1.6520023345947266,0.07528470456600189,1.6633286476135254,2.4276583194732666
305001.77977490355,-0.020733090117573738,0.9190292358398438,0.35997825860977173,0.20356370508670807,2.2184605598449707,0.5355618000030518,0.7881933450698853,4.043118953704834
305001.78377490357,-0.023933427408337593,1.0468337535858154,0.41115984320640564,0.19683685898780823,2.548154592514038,0.5781273245811462,0.8460476994514465,4.716156005859375
305001.7877749036,-0.043329425156116486,0.48032280802726746,0.7346466779708862,-0.13940109312534332,0.5869982838630676,1.7419438362121582,0.5623320937156677,0.47036507725715637
305001.79177490354,-0.07424434274435043,0.6797946095466614,1.2176910638809204,-0.06512431800365448,0.5022268891334534,2.723729133605957,1.4973974227905273,0.20692655444145203
305001.79577490356,-0.086673304438591,0.7886090278625488,1.3970340490341187,-0.0767490565776825,0.5936384797096252,3.1781842708587646,1.7216718196868896,0.2349276840686798
305001.7997749036,-0.05393180623650551,0.2368534803390503,0.8420811891555786,0.5450461506843567,-0.28253665566444397,0.504803478717804,2.024587631225586,1.5387543439865112
305001.8037749035,-0.06958889216184616,0.2097574770450592,1.0657349824905396,1.1529209613800049,0.17715094983577728,0.08211136609315872,1.8287640810012817,2.617295503616333
305001.80777490354,-0.07725891470909119,0.1346510797739029,1.1518287658691406,1.725754976272583,0.7831150889396667,-0.4136645197868347,1.1387121677398682,3.2082021236419678
305001.81177490356,-0.0883985161781311,0.14695270359516144,1.3076765537261963,1.9717390537261963,0.8918672800064087,-0.5304471850395203,1.2665315866470337,3.8439033031463623
305001.8157749036,-0.03273779898881912,-0.02722586877644062,0.36500677466392517,1.0817402601242065,1.3681293725967407,0.7651154398918152,0.1814628541469574,-0.20546340942382812
305001.81977490353,-0.024305837228894234,-0.08795135468244553,0.2791582942008972,1.1152656078338623,1.806205153465271,1.7699531316757202,1.2035329341888428,0.4246920943260193
305001.82377490355,-0.0071600209921598434,-0.15575960278511047,0.12533752620220184,0.9421985149383545,1.9869067668914795,2.745835065841675,2.3911914825439453,1.3325324058532715
305001.82777490356,-0.007597398944199085,-0.17585161328315735,0.1282183676958084,1.065252423286438,2.2834911346435547,3.1549365520477295,2.7235825061798096,1.464301347732544
305001.8317749036,0.02808115817606449,-0.09074751287698746,-0.10810203850269318,-0.02373688295483589,0.19000723958015442,0.7754409313201904,1.2987147569656372,1.8048759698867798
305001.83577490353,0.06689851731061935,-0.024565445259213448,-0.07400596141815186,-0.04893340542912483,-0.09723510593175888,0.33603620529174805,0.8597574830055237,1.3069278001785278
305001.83977490355,0.10695379972457886,0.07210306823253632,-0.012955940328538418,-0.06339320540428162,-0.3650638461112976,-0.23261478543281555,0.0939800962805748,0.274539053440094
305001.84377490357,0.12239860743284225,0.08553826808929443,-0.014635796658694744,-0.07726263254880905,-0.483356237411499,-0.3764612376689911,0.07233656197786331,0.28231173753738403
305001.8477749036,0.10781367123126984,0.20460885763168335,0.3025364875793457,0.38904044032096863,0.4103924334049225,0.5444346070289612,0.7332273125648499,0.9119239449501038
305001.85177490354,0.18333785235881805,0.4097307026386261,0.6999281644821167,0.9558383226394653,1.3110814094543457,1.5490310192108154,1.9577410221099854,2.1789662837982178
305001.85577490355,0.24911798536777496,0.6048609018325806,1.0947309732437134,1.5013114213943481,2.246354818344116,2.466031074523926,3.156773805618286,3.3049192428588867
305001.85977490357,0.28397899866104126,0.6904780864715576,1.2541030645370483,1.741660237312317,2.582942247390747,2.92962384223938,3.6309847831726074,3.8728578090667725
305001.8637749036,0.19154958426952362,0.4894616901874542,0.8651400208473206,1.191550374031067,1.0811622142791748,0.9875213503837585,0.5452867150306702,0.08446712791919708
305001.86777490354,0.29829591512680054,0.747717022895813,1.1668415069580078,1.2864289283752441,0.8894673585891724,0.5186910629272461,0.1697510927915573,0.1464000791311264
305001.87177490356,0.38306665420532227,0.9509137868881226,1.3127014636993408,1.163161277770996,0.430874228477478,-0.16261252760887146,-0.1716141700744629,0.5430800318717957
305001.8757749036,0.4361911714076996,1.0811381340026855,1.5021541118621826,1.3161931037902832,0.4841645061969757,-0.2544947862625122,-0.30777043104171753,0.45566537976264954
305001.8797749036,0.25933361053466797,0.582504153251648,0.4807499349117279,-0.004883190151304007,-0.27737993001937866,0.3347494304180145,1.3530570268630981,2.0096702575683594
305001.88377490354,0.3804129362106323,0.738821804523468,0.4246375262737274,-0.15086476504802704,0.11939419060945511,1.4177531003952026,2.281249523162842,1.7212554216384888
305001.88777490356,0.4678162932395935,0.8010035753250122,0.27548494935035706,-0.2986064553260803,0.6970444917678833,2.606558084487915,2.907036542892456,0.8822231292724609
305001.8917749036,0.5323671102523804,0.9102959632873535,0.29723769426345825,-0.33827486634254456,0.7854516506195068,2.9783380031585693,3.456052541732788,1.039910078048706
305001.8957749036,0.2899230420589447,0.32466262578964233,-0.09136049449443817,0.19255004823207855,1.4738047122955322,1.2983906269073486,-0.13991540670394897,0.3192613124847412
305001.89977490355,0.41057342290878296,0.3277882933616638,-0.15182578563690186,0.7563137412071228,1.9084638357162476,0.9879504442214966,0.01878475211560726,1.7809271812438965
305001.90377490356,0.49129974842071533,0.2692433297634125,-0.18403126299381256,1.361938238143921,2.0253641605377197,0.4151548743247986,0.479480504989624,3.214271068572998
305001.9077749036,0.5584824681282043,0.3026829957962036,-0.22258302569389343,1.558835744857788,2.339198112487793,0.4314812421798706,0.4622977077960968,3.6824817657470703
305001.9117749036,0.30411937832832336,-0.0013302076840773225,0.2973317801952362,1.2349210977554321,0.17896689474582672,0.4949943423271179,2.0271236896514893,0.6301659941673279
305001.91577490355,0.4546297788619995,-0.04051809385418892,0.5823265910148621,1.7364007234573364,0.05257856845855713,1.244102120399475,2.8407177925109863,0.46855801343917847
305001.91977490357,0.5230072140693665,-0.0461331345140934,0.6619491577148438,2.0018796920776367,0.06278920918703079,1.378379225730896,3.2722575664520264,0.482806533575058
305001.9237749036,0.24851657450199127,-0.08961940556764603,0.7467406392097473,0.5221052169799805,-0.026256999000906944,1.554828405380249,0.22730454802513123,1.0434142351150513
305001.92777490354,0.3265054225921631,-0.09087269008159637,1.1686264276504517,0.2987188696861267,0.6311360597610474,1.6083728075027466,0.16539563238620758,2.085794687271118
305001.93177490355,0.3690398037433624,-0.06897798180580139,1.4941848516464233,-0.04359787702560425,1.4007614850997925,1.2778767347335815,0.2987423837184906,2.934922695159912
305001.93577490357,0.4187275469303131,-0.0785142108798027,1.7021901607513428,-0.0625370517373085,1.624649167060852,1.4752095937728882,0.1850852072238922,3.4340755939483643
305001.9397749036,0.17543672025203705,0.05056540295481682,0.7709125876426697,-0.08124585449695587,1.5115573406219482,-0.17143920063972473,1.8900856971740723,-0.013950423337519169
305001.94377490354,0.21741344034671783,0.18569645285606384,0.84591144323349,0.20520104467868805,1.5731016397476196,0.23236298561096191,2.0985498428344727,0.4642624855041504
305001.94777490356,0.2319561094045639,0.3319510519504547,0.7737666964530945,0.5927777290344238,1.3258215188980103,0.8563368916511536,1.8540745973587036,1.2751625776290894
305001.9517749036,0.2627466917037964,0.37890976667404175,0.8758246898651123,0.6717969179153442,1.5070964097976685,0.9296103715896606,2.144784688949585,1.35932195186615
305001.9557749036,0.09279893338680267,0.3792678117752075,0.04602330923080444,1.061476230621338,-0.15534111857414246,1.7500542402267456,0.013751828111708164,1.88140070438385
305001.95977490355,0.10007759183645248,0.6390273571014404,-0.09431613981723785,1.5727028846740723,-0.09546056389808655,2.026676654815674,0.7236826419830322,1.379049301147461
305001.96377490356,0.09039277583360672,0.8584550023078918,-0.2574898600578308,1.8963234424591064,0.05133301392197609,1.8792471885681152,1.667871356010437,0.2879461348056793
305001.9677749036,0.10213857144117355,0.9796212315559387,-0.3025721311569214,2.189225435256958,0.010838810354471207,2.1580324172973633,1.8593720197677612,0.34479856491088867
305001.9717749036,0.012325778603553772,0.5830665826797485,-0.08778103440999985,0.7052687406539917,1.0565404891967773,-0.15389762818813324,1.9706698656082153,0.4403660297393799
305001.97577490355,-0.0008037027437239885,0.790040135383606,0.11574947088956833,0.5307814478874207,1.8085780143737793,0.1837325543165207,1.5290664434432983,1.8529138565063477
305001.97977490356,-0.017940890043973923,0.9116491675376892,0.3726237118244171,0.21319524943828583,2.3683218955993652,0.6439265012741089,0.5740675330162048,3.3391129970550537
305001.9837749036,-0.021886533126235008,1.0346896648406982,0.4290236830711365,0.22214190661907196,2.7655763626098633,0.7042231559753418,0.6570048332214355,3.8295600414276123
305001.9877749036,-0.032158028334379196,0.4745032489299774,0.6211933493614197,-0.1809239387512207,0.7572847604751587,1.6424540281295776,0.19787919521331787,0.2872968912124634
305001.99177490355,-0.05848180130124092,0.5602213740348816,1.0453603267669678,0.013412442989647388,0.49094146490097046,2.0337202548980713,1.237275242805481,0.15128694474697113
305001.99577490357,-0.08139282464981079,0.5644157528877258,1.4079786539077759,0.30477002263069153,0.06947822868824005,2.0929946899414062,2.4341049194335938,0.2710883617401123
305001.9997749036,-0.09297972172498703,0.6397430896759033,1.6009596586227417,0.32774654030799866,0.04872576892375946,2.4318792819976807,2.8063220977783203,0.1600000262260437
305002.0037749036,-0.0567360557615757,0.15915392339229584,0.8645035624504089,0.9049752354621887,-0.059074901044368744,-0.21843688189983368,1.3252971172332764,2.4467716217041016
305002.00777490356,-0.07084854692220688,0.10868177562952042,1.0090993642807007,1.4686260223388672,0.6709586977958679,-0.08511298149824142,0.8536266684532166,2.3634653091430664
305002.01177490357,-0.07527153939008713,0.018907930701971054,0.9995602965354919,1.9096604585647583,1.5316271781921387,0.26326093077659607,0.1489606350660324,1.5730445384979248
305002.0157749036,-0.08585742115974426,0.019547972828149796,1.1373928785324097,2.176349401473999,1.7629808187484741,0.27127984166145325,0.07762162387371063,1.8130391836166382
305002.0197749036,-0.018895242363214493,-0.1061137393116951,0.18742085993289948,0.7894487977027893,1.5751936435699463,1.4940873384475708,0.7460004687309265,-0.03999607637524605
305002.02377490356,-0.0035650553181767464,-0.1424190104007721,0.0702093243598938,0.6890581250190735,1.6101503372192383,2.0986287593841553,1.819892406463623,1.4918124675750732
305002.0277749036,0.01751706935465336,-0.15459635853767395,-0.08992613852024078,0.42587918043136597,1.3144268989562988,2.3455440998077393,2.760019540786743,3.255213499069214
305002.0317749036,0.01935107447206974,-0.18299110233783722,-0.12027410417795181,0.46248337626457214,1.4800931215286255,2.7119579315185547,3.2675962448120117,3.6920948028564453
305002.0357749036,0.05953497439622879,0.011005316860973835,-0.10073500871658325,-0.11652565002441406,-0.12294647842645645,0.012651555240154266,0.46405234932899475,0.6179649233818054
305002.03977490356,0.10620444267988205,0.06339175999164581,-0.07504899054765701,-0.1283431351184845,-0.1694985032081604,-0.17179977893829346,0.3289596140384674,0.12420008331537247
305002.0437749036,0.12219241261482239,0.0681682899594307,-0.0905509665608406,-0.14742930233478546,-0.22314557433128357,-0.2575052082538605,0.3450259566307068,0.19184550642967224
305002.0477749036,0.10751599818468094,0.20238707959651947,0.30049455165863037,0.38939332962036133,0.425156831741333,0.5652858018875122,0.708895742893219,0.867434561252594
305002.05177490355,0.18268142640590668,0.40783894062042236,0.6928869485855103,1.0065659284591675,1.1914640665054321,1.5785136222839355,1.7734678983688354,2.2202301025390625
305002.05577490357,0.24813908338546753,0.6022739410400391,1.084663987159729,1.6401933431625366,1.9566596746444702,2.573699712753296,2.767469644546509,3.4592347145080566
305002.0597749036,0.2827107608318329,0.6889995336532593,1.2388310432434082,1.8684320449829102,2.2497611045837402,2.964526414871216,3.2138545513153076,4.078742027282715
305002.0637749036,0.19129833579063416,0.5172536373138428,0.8036357164382935,1.0515822172164917,1.2335690259933472,1.0127874612808228,1.29024076461792,0.14955958724021912
305002.06777490355,0.29757359623908997,0.7668624520301819,1.092155933380127,1.1923249959945679,1.0506840944290161,0.5705346465110779,0.5112566351890564,0.3857269585132599
305002.07177490357,0.3819870352745056,0.9508422017097473,1.2554645538330078,1.1287786960601807,0.5959011316299438,-0.0310201495885849,-0.2336859107017517,0.8652053475379944
305002.0757749036,0.43525853753089905,1.0815706253051758,1.4326362609863281,1.2839127779006958,0.6565282940864563,-0.14525677263736725,-0.560757577419281,0.9148880243301392
305002.0797749036,0.2595917880535126,0.5892067551612854,0.5000426769256592,0.010799992829561234,-0.24520623683929443,0.4018799960613251,1.3216742277145386,1.998623013496399
305002.08377490356,0.38299161195755005,0.7362703680992126,0.4146862328052521,-0.1394415944814682,0.13690422475337982,1.3423285484313965,1.9958547353744507,1.8341559171676636
305002.0877749036,0.47361183166503906,0.789312481880188,0.2195645272731781,-0.27587538957595825,0.6733862161636353,2.3361353874206543,2.368961811065674,1.1101080179214478
305002.0917749036,0.5392477512359619,0.8943759799003601,0.2423275262117386,-0.35082146525382996,0.7491844296455383,2.685082197189331,2.755551815032959,1.2817747592926025
305002.0957749036,0.28997448086738586,0.3206298053264618,-0.08758392184972763,0.2496383637189865,1.3706176280975342,1.3256734609603882,-0.03542671725153923,0.19815075397491455
305002.09977490356,0.40868955850601196,0.3241540193557739,-0.14254869520664215,0.7641157507896423,1.7927570343017578,0.8953337669372559,0.21699227392673492,1.6294407844543457
305002.1037749036,0.4886651337146759,0.26521217823028564,-0.16441676020622253,1.2993971109390259,1.9628980159759521,0.15796113014221191,0.6882732510566711,3.0686097145080566
305002.1077749036,0.556938111782074,0.2986030578613281,-0.2027815729379654,1.495682954788208,2.2372758388519287,0.16100896894931793,0.7278079986572266,3.6891586780548096
305002.1117749036,0.2778169512748718,0.001254130620509386,0.172952800989151,1.126184105873108,0.1754438430070877,0.006936301942914724,1.9796422719955444,0.9099579453468323
305002.11577490356,0.37857139110565186,-0.05312325805425644,0.5336083173751831,1.355377197265625,-0.07765867561101913,1.0073362588882446,2.0946767330169678,0.5030813813209534
305002.1197749036,0.44033366441726685,-0.11116954684257507,0.9170148968696594,1.3665601015090942,-0.3273364305496216,2.0970520973205566,1.7194973230361938,0.11195644736289978
305002.1237749036,0.5000824928283691,-0.12590450048446655,1.047723650932312,1.550849437713623,-0.40732046961784363,2.449566602706909,2.026205539703369,-0.1058216542005539
305002.1277749036,0.23485535383224487,-0.09751147776842117,0.8198068737983704,0.13620804250240326,0.47351011633872986,1.4940978288650513,-0.5746914148330688,1.8834362030029297
305002.13177490357,0.30461904406547546,-0.07837965339422226,1.1492257118225098,-0.11546660959720612,1.263687014579773,1.1109135150909424,0.2884347438812256,2.1666600704193115
305002.1357749036,0.3393397033214569,-0.0308736190199852,1.3610395193099976,-0.38547900319099426,2.0210564136505127,0.4035002291202545,1.4701175689697266,1.940151572227478
305002.1397749036,0.3852471709251404,-0.03199935704469681,1.5528233051300049,-0.46888160705566406,2.354794502258301,0.40651994943618774,1.7037100791931152,2.274244546890259
305002.1437749036,0.15470662713050842,0.11423181742429733,0.6112388968467712,0.08647582679986954,1.1910557746887207,-0.24834266304969788,1.568625807762146,-0.07392573356628418
305002.14777490357,0.18809330463409424,0.29096880555152893,0.5937010645866394,0.5767979025840759,1.0003372430801392,0.6782937049865723,1.110945224761963,1.150757074356079
305002.1517749036,0.19662779569625854,0.4697973430156708,0.4509991705417633,1.1407746076583862,0.5542736053466797,1.7777211666107178,0.20277604460716248,2.6134657859802246
305002.1557749036,0.22258728742599487,0.5375337600708008,0.5066877603530884,1.306068778038025,0.6113734841346741,2.0682623386383057,0.2242521047592163,3.0279693603515625
305002.1597749036,0.06852061301469803,0.5289979577064514,-0.09717565029859543,1.2342802286148071,-0.18822577595710754,1.3242281675338745,0.6886649131774902,1.0184062719345093
305002.1637749036,0.0894765704870224,0.8538125157356262,-0.21618224680423737,1.7950879335403442,-0.10077177733182907,1.6580350399017334,1.7214784622192383,0.39340850710868835
305002.1677749036,0.10323522984981537,0.9812667369842529,-0.24845141172409058,2.079028606414795,-0.16293832659721375,1.9526466131210327,1.9207258224487305,0.5119102597236633
305002.1717749036,0.013182698749005795,0.5723193883895874,-0.06425580382347107,0.6711646318435669,1.0129512548446655,-0.40154746174812317,2.0833547115325928,0.3530502915382385
305002.17577490356,-0.0004531762970145792,0.8044993281364441,0.11516067385673523,0.5261414647102356,1.7384757995605469,-0.1011294275522232,1.6053177118301392,1.5857808589935303
305002.1797749036,-0.018356243148446083,0.9540464878082275,0.35006844997406006,0.2550387680530548,2.294980764389038,0.4428851902484894,0.586987316608429,2.8198258876800537
305002.1837749036,-0.022283310070633888,1.0880080461502075,0.3961750566959381,0.2592674195766449,2.6504693031311035,0.48457762598991394,0.6643962264060974,3.284954309463501
305002.1877749036,-0.03464876487851143,0.4709104001522064,0.6006370782852173,-0.1956348568201065,0.7638687491416931,1.6637624502182007,-0.20224566757678986,0.2573925256729126
305002.19177490356,-0.058643970638513565,0.5567516684532166,1.0467631816864014,0.018135614693164825,0.44365745782852173,2.0849475860595703,1.0313814878463745,0.021950002759695053
305002.1957749036,-0.07813186198472977,0.5615964531898499,1.431983470916748,0.338502436876297,-0.07677850872278214,2.126087188720703,2.455638885498047,0.0593748465180397
305002.1997749036,-0.08838406205177307,0.6360284090042114,1.6289935111999512,0.3885433077812195,-0.09079783409833908,2.4447407722473145,2.862649440765381,-0.12778504192829132
305002.2037749036,-0.04995393753051758,0.14956897497177124,0.7973295450210571,0.8371481895446777,0.009996389038860798,0.09034954756498337,2.860755205154419,2.5033395290374756
305002.20777490357,-0.06386150419712067,0.10282566398382187,0.9611538052558899,1.4414047002792358,0.614895224571228,0.11578144133090973,1.5753110647201538,2.3919715881347656
305002.2117749036,-0.06711423397064209,0.02257256768643856,0.9713747501373291,1.9417921304702759,1.3228448629379272,0.24540862441062927,-0.20496056973934174,1.5782456398010254
305002.2157749036,-0.07780641317367554,0.025044148787856102,1.1057223081588745,2.245542287826538,1.5285743474960327,0.17972472310066223,-0.4782165586948395,1.8295761346817017
305002.2197749036,-0.014702307991683483,-0.0912763923406601,0.16263721883296967,0.8103940486907959,1.3801697492599487,1.442447304725647,0.7047815918922424,0.0022636631038039923
305002.22377490357,-0.002075277268886566,-0.13436175882816315,0.029334483668208122,0.7070138454437256,1.5408685207366943,1.963577151298523,2.0821757316589355,1.5287774801254272
305002.2277749036,0.01569349691271782,-0.15930479764938354,-0.13438573479652405,0.4363671839237213,1.3739323616027832,2.197280168533325,3.388245105743408,3.3345093727111816
305002.2317749036,0.018944568932056427,-0.18024811148643494,-0.17466561496257782,0.47347328066825867,1.5640922784805298,2.5587732791900635,3.9889779090881348,3.8054189682006836
305002.2357749036,0.044905319809913635,-0.012812023982405663,-0.11734911054372787,-0.2452431619167328,-0.04580250009894371,0.10145200043916702,0.6381196975708008,1.1928642988204956
305002.2397749036,0.09328923374414444,0.08530590683221817,0.010691069066524506,-0.0896918773651123,-0.053172625601291656,-0.06469295173883438,0.41814130544662476,0.5115445256233215
305002.2437749036,0.14066702127456665,0.20027096569538116,0.18436436355113983,0.15065838396549225,0.030118398368358612,-0.12804099917411804,0.15833039581775665,-0.2624534070491791
305002.2477749036,0.16047067940235138,0.2296648919582367,0.21327976882457733,0.17625686526298523,0.009764831513166428,-0.22241725027561188,0.08874844759702682,-0.47184520959854126
305002.2517749036,0.12868444621562958,0.29522982239723206,0.4909905195236206,0.744658887386322,0.9852646589279175,1.1796479225158691,1.4452975988388062,1.8939247131347656
305002.2557749036,0.21305198967456818,0.5284284949302673,0.9116462469100952,1.310137391090393,1.7060476541519165,2.0335450172424316,2.0823252201080322,2.5189380645751953
305002.2597749036,0.28525158762931824,0.733637809753418,1.2876310348510742,1.7651832103729248,2.289259910583496,2.6577160358428955,2.3951942920684814,2.7290096282958984
305002.2637749036,0.32460030913352966,0.8403957486152649,1.4749020338058472,2.0447418689727783,2.629227638244629,3.13141131401062,2.7594728469848633,3.11850905418396
305002.2677749036,0.21404512226581573,0.5569007992744446,0.8584761023521423,0.9458274245262146,0.7677634358406067,0.3233146667480469,0.006244800519198179,-0.477667897939682
305002.2717749036,0.32497817277908325,0.8102986812591553,1.0614954233169556,0.9181371927261353,0.5244432687759399,0.14479826390743256,0.2644193768501282,0.6230513453483582
305002.2757749036,0.41023972630500793,0.985805869102478,1.1037030220031738,0.7026482224464417,0.1475505381822586,-0.036178793758153915,0.7459513545036316,1.99476957321167
305002.2797749036,0.4668457806110382,1.1193512678146362,1.250829815864563,0.7843747735023499,0.12316854298114777,-0.06041106954216957,0.7363812923431396,2.327226161956787
305002.2837749036,0.2978401184082031,0.547738790512085,0.23858579993247986,-0.11036302894353867,0.2960817217826843,1.437005639076233,1.8649375438690186,1.5124590396881104
305002.2877749036,0.4591820538043976,0.7763919234275818,0.20591332018375397,-0.17629580199718475,0.7344788908958435,2.665609836578369,2.5066206455230713,1.3310110569000244
305002.2917749036,0.5281128883361816,0.8989524841308594,0.24471522867679596,-0.195301353931427,0.7992725372314453,3.0682084560394287,2.9477903842926025,1.5378106832504272
305002.2957749036,0.2860214114189148,0.31942617893218994,-0.17680877447128296,0.19407488405704498,1.3377522230148315,1.3318994045257568,-0.3020370900630951,0.3945763409137726
305002.2997749036,0.41000956296920776,0.3313674330711365,-0.17008709907531738,0.7395715713500977,1.8404017686843872,0.93132084608078,-0.015308828093111515,1.894020438194275
305002.3037749036,0.4979105591773987,0.2847932279109955,-0.10684601217508316,1.321879506111145,2.0628507137298584,0.27358317375183105,0.5689942240715027,3.5661725997924805
305002.3077749036,0.5655270218849182,0.3198927044868469,-0.12094946950674057,1.5158127546310425,2.3700308799743652,0.24328261613845825,0.61500483751297,4.132599830627441
305002.3117749036,0.27567258477211,0.014334148727357388,0.16179734468460083,1.2347497940063477,0.1864897906780243,0.03096236288547516,2.1129727363586426,0.7880175709724426
305002.3157749036,0.37917959690093994,-0.052229251712560654,0.5068672895431519,1.483083724975586,-0.04142307490110397,1.1005030870437622,2.299746036529541,0.60813969373703
305002.3197749036,0.4435407221317291,-0.124690480530262,0.8690770864486694,1.4854347705841064,-0.23951247334480286,2.3183436393737793,1.955299973487854,0.42588600516319275
305002.3237749036,0.5046929121017456,-0.15074840188026428,0.9974969625473022,1.6911121606826782,-0.33239105343818665,2.6574583053588867,2.2521629333496094,0.4063635468482971
305002.3277749036,0.2323903739452362,-0.07078646868467331,0.8277544379234314,0.18522247672080994,0.4728773832321167,1.3269234895706177,-0.5463651418685913,1.9107003211975098
305002.3317749036,0.3030868172645569,-0.06237800419330597,1.2210750579833984,-0.053085021674633026,1.2616287469863892,1.042493224143982,0.4408921003341675,2.142646074295044
305002.3357749036,0.33979231119155884,-0.03137016296386719,1.4901398420333862,-0.3236315846443176,2.070568084716797,0.4113011956214905,1.797078251838684,1.9267328977584839
305002.3397749036,0.3857658803462982,-0.039590805768966675,1.7005563974380493,-0.4054984152317047,2.359724760055542,0.4292406737804413,2.0491151809692383,2.264482021331787
305002.3437749036,0.1556369960308075,0.11655447632074356,0.6055001020431519,0.03759963437914848,1.1487958431243896,0.1389441192150116,3.7985129356384277,-0.4139973521232605
305002.3477749036,0.18872976303100586,0.2929537296295166,0.5839254260063171,0.5235050320625305,1.0163908004760742,0.9659150838851929,2.9688374996185303,0.862669825553894
305002.3517749036,0.19658681750297546,0.47185826301574707,0.44150251150131226,1.0680211782455444,0.6267992854118347,1.9323374032974243,1.186785340309143,2.3919456005096436
305002.3557749036,0.22251833975315094,0.5396010279655457,0.49626120924949646,1.2293668985366821,0.6908780932426453,2.1987357139587402,1.2465397119522095,2.8117597103118896
305002.3597749036,0.07295654714107513,0.4604456424713135,-0.03969048708677292,1.1175750494003296,-0.14223946630954742,1.6084237098693848,0.04863942414522171,1.3428370952606201
305002.3637749036,0.07218512892723083,0.7233479022979736,-0.13910047709941864,1.4345614910125732,0.22936585545539856,1.4057165384292603,1.2137426137924194,0.8451974987983704
305002.3677749036,0.057217713445425034,0.9290475845336914,-0.22113534808158875,1.5521559715270996,0.7274599075317383,0.7929724454879761,2.4603071212768555,0.22112607955932617
305002.3717749036,0.06395463645458221,1.0614033937454224,-0.2701980471611023,1.7770545482635498,0.810614287853241,0.882245659828186,2.877110242843628,0.05397416651248932
305002.37577490363,-0.00707569345831871,0.5647157430648804,0.046346068382263184,0.33546239137649536,1.3950281143188477,-0.22471937537193298,1.1036243438720703,1.6221599578857422
305002.3797749036,-0.024151906371116638,0.7634723782539368,0.3410132825374603,0.06022117659449577,1.8419523239135742,0.5357997417449951,0.4993954598903656,2.8577568531036377
305002.3837749036,-0.041660621762275696,0.8723189830780029,0.6657119393348694,-0.2967166006565094,2.0194637775421143,1.5367889404296875,-0.3440464735031128,3.789891004562378
305002.3877749036,-0.04738828167319298,0.9948397278785706,0.7643143534660339,-0.3676493465900421,2.3144538402557373,1.7531516551971436,-0.48240146040916443,4.365303039550781
305002.39177490363,-0.04322362691164017,0.39620524644851685,0.8856323957443237,0.026281509548425674,0.06289006769657135,1.5303868055343628,1.3887056112289429,0.02711845003068447
305002.3957749036,-0.06989791989326477,0.5403776168823242,1.404850721359253,0.28226375579833984,-0.18571729958057404,2.0285613536834717,2.787019729614258,0.24106809496879578
305002.3997749036,-0.08031471073627472,0.6271523237228394,1.621110439300537,0.30723848938941956,-0.22494643926620483,2.378892183303833,3.220954179763794,0.11846725642681122
305002.4037749036,-0.04967810958623886,0.15112893283367157,0.8411886692047119,0.8432863354682922,0.09466680884361267,-0.048854414373636246,1.4977105855941772,2.579766035079956
305002.4077749036,-0.06274924427270889,0.10072122514247894,0.9521050453186035,1.4447777271270752,0.7527957558631897,-0.05016529932618141,0.8993659019470215,2.3755276203155518
305002.4117749036,-0.0696689561009407,0.0133845005184412,0.9238017201423645,1.9518425464630127,1.530914306640625,0.13171595335006714,0.014508849941194057,1.411566972732544
305002.4157749036,-0.07829692959785461,0.014797608368098736,1.0435072183609009,2.2450170516967773,1.7496495246887207,0.07456562668085098,-0.05991200730204582,1.6274659633636475
305002.4197749036,-0.021432019770145416,-0.06747538596391678,0.19273416697978973,0.8605982065200806,1.5100326538085938,1.5542688369750977,0.7014324069023132,-0.2141331434249878
305002.4237749036,-0.008482782170176506,-0.09830892831087112,0.08917566388845444,0.7128874063491821,1.5921827554702759,2.1192305088043213,1.9956892728805542,1.1828594207763672
305002.4277749036,0.01030275784432888,-0.11677423864603043,-0.05326031148433685,0.37815284729003906,1.34762704372406,2.327085256576538,3.1912732124328613,2.7570419311523438
305002.4317749036,0.0121872927993536,-0.13233008980751038,-0.0782565027475357,0.41326427459716797,1.5360077619552612,2.68290376663208,3.7423436641693115,3.2645092010498047
305002.4357749036,0.04726767539978027,-0.021433023735880852,-0.1671619415283203,-0.2691437304019928,-0.1691068857908249,0.24354231357574463,0.6371244788169861,0.8597292900085449
305002.4397749036,0.095578134059906,0.07584629207849503,-0.04322053864598274,-0.1550562083721161,-0.1928335577249527,0.11772113293409348,0.41934114694595337,0.24883052706718445
305002.4437749036,0.14200329780578613,0.1942146271467209,0.1496904343366623,0.07877456396818161,-0.1161646619439125,0.01727699488401413,0.15721234679222107,-0.3564074635505676
305002.4477749036,0.16159388422966003,0.22463543713092804,0.17088563740253448,0.06994950771331787,-0.1845855563879013,-0.06309432536363602,0.11632077395915985,-0.6115967035293579
305002.45177490363,0.1291321963071823,0.2933463156223297,0.4970509707927704,0.6769413948059082,1.0497969388961792,1.186843752861023,1.5912405252456665,1.6531398296356201
305002.4557749036,0.21263286471366882,0.5360779166221619,0.9396212697029114,1.3045175075531006,1.7852669954299927,1.942960500717163,2.203974962234497,2.134000778198242
305002.4597749036,0.2833417057991028,0.7552617192268372,1.3379722833633423,1.8973044157028198,2.337247848510742,2.50748610496521,2.439537286758423,2.1445960998535156
305002.4637749036,0.322645902633667,0.8635596632957458,1.536628246307373,2.162693738937378,2.704401969909668,2.875986337661743,2.823009490966797,2.571012496948242
305002.46777490363,0.2979607880115509,0.7711341977119446,1.216125726699829,1.2833131551742554,0.9143081307411194,0.4412926435470581,-0.2833949029445648,-0.16792826354503632
305002.4717749036,0.3322307765483856,0.8631771206855774,1.3624653816223145,1.4642162322998047,1.0796984434127808,0.5400333404541016,-0.2476358264684677,-0.1431300938129425
305002.4757749036,0.3360346853733063,0.7756168246269226,0.8310227990150452,0.36370790004730225,-0.17978960275650024,-0.19262705743312836,0.7992455959320068,2.304767608642578
305002.47977490356,0.37623849511146545,0.8717652559280396,0.948662281036377,0.444014310836792,-0.19917072355747223,-0.27495890855789185,0.766791045665741,2.4801242351531982
305002.4837749036,0.2703847587108612,0.5437612533569336,0.31147629022598267,-0.20336760580539703,-0.0013496850151568651,0.959333062171936,4.0655131340026855,1.592917799949646
305002.48777490354,0.3978230357170105,0.6611999273300171,0.20874392986297607,-0.1458432674407959,0.6812631487846375,1.8275082111358643,3.9671311378479004,0.8530555963516235
305002.49177490355,0.4918923079967499,0.6892248392105103,0.03813860937952995,-0.008031422272324562,1.4498356580734253,2.5817112922668457,2.8017303943634033,-0.21393749117851257
305002.49577490357,0.5594590902328491,0.7813328504562378,0.030017951503396034,-0.028324611485004425,1.6774816513061523,2.9658496379852295,3.274214506149292,-0.37674883008003235
305002.4997749036,0.2930060923099518,0.23765936493873596,-0.15707087516784668,0.528109610080719,1.4407703876495361,0.5238035321235657,-0.10174446552991867,1.1417491436004639
305002.50377490354,0.4107320308685303,0.2105722874403,-0.06206515058875084,1.1020618677139282,1.5652421712875366,0.07319033890962601,0.7380273342132568,2.6362226009368896
305002.50777490356,0.49114739894866943,0.1349153369665146,0.07838433235883713,1.6394402980804443,1.360912561416626,-0.4467618763446808,1.7741535902023315,4.047912120819092
305002.51177490357,0.5572843551635742,0.14792706072330475,0.08736992627382278,1.8867677450180054,1.5378350019454956,-0.5704865455627441,2.0380284786224365,4.671549320220947
305002.5157749036,0.27297717332839966,-0.053497131913900375,0.3648037910461426,1.0222141742706299,-0.10924704372882843,0.8246934413909912,1.940558910369873,-0.3811720311641693
305002.51977490354,0.36672765016555786,-0.106015644967556,0.775549590587616,1.0568300485610962,-0.023906413465738297,1.7262715101242065,1.3379853963851929,0.29846808314323425
305002.52377490356,0.42250120639801025,-0.1512463539838791,1.1691187620162964,0.8758329749107361,0.15915213525295258,2.494631052017212,0.34235185384750366,1.388850450515747
305002.5277749036,0.47967106103897095,-0.17696556448936462,1.341095209121704,0.9929637312889099,0.1532207578420639,2.8976078033447266,0.3056435286998749,1.5396525859832764
305002.5317749036,0.22847771644592285,-0.05832328274846077,0.9146984815597534,-0.055563248693943024,1.2001688480377197,0.5479404330253601,0.7247531414031982,1.9724030494689941
305002.53577490355,0.3306421637535095,-0.049927759915590286,1.3701213598251343,-0.16469316184520721,2.0403313636779785,0.23234820365905762,1.8054919242858887,1.9650964736938477
305002.53977490356,0.3816775679588318,-0.05993024632334709,1.5796345472335815,-0.20365452766418457,2.356905460357666,0.3001907467842102,2.0344603061676025,2.353811025619507
305002.5437749036,0.1266956776380539,0.06785175949335098,0.5095517635345459,-0.06436736136674881,1.1788268089294434,-0.12001010030508041,1.9058637619018555,-0.21339009702205658
305002.5477749036,0.13758939504623413,0.2688615024089813,0.3922024965286255,0.5804349184036255,0.5490046143531799,0.9682970643043518,0.8981224298477173,0.9452951550483704
305002.55177490355,0.1906191110610962,0.46916496753692627,0.45308056473731995,1.1655004024505615,0.3929785490036011,2.0468366146087646,0.6135572791099548,2.132880687713623
305002.55577490357,0.2200338989496231,0.5373077392578125,0.5247593522071838,1.3251324892044067,0.474038302898407,2.312307119369507,0.7226312160491943,2.482891082763672
305002.5597749036,0.07906702905893326,0.4719105660915375,-0.10041913390159607,1.136911153793335,-0.515946626663208,1.7089482545852661,-0.13538138568401337,1.247827172279358
305002.56377490354,0.08765655755996704,0.7272714972496033,-0.15553362667560577,1.5054680109024048,-0.25936436653137207,1.7582006454467773,0.8455663919448853,0.908300518989563
305002.56777490355,0.05920294299721718,0.8614697456359863,-0.14305946230888367,1.390125036239624,0.5078871250152588,0.8774657845497131,2.0767719745635986,0.41519564390182495
305002.57177490357,0.0233297236263752,0.9566107988357544,-0.08866357803344727,1.1146169900894165,1.3918631076812744,-0.13016670942306519,3.045928478240967,0.45405447483062744
305002.5757749036,0.017823543399572372,1.0315783023834229,-0.08639566600322723,1.1570078134536743,1.6662474870681763,-0.44776782393455505,3.527376651763916,0.22912181913852692
305002.5797749036,-0.02642097696661949,0.5959950089454651,0.3555445671081543,0.029157249256968498,1.3224740028381348,0.5744258761405945,0.1218370646238327,2.0613975524902344
305002.58377490356,-0.04809701070189476,0.8743898272514343,0.6835358738899231,-0.08822286128997803,1.8042356967926025,1.365768313407898,-0.1957395076751709,2.782163143157959
305002.5877749036,-0.05523598566651344,1.0043448209762573,0.779021680355072,-0.10597303509712219,2.098241090774536,1.5686959028244019,-0.3025203049182892,3.369027853012085
305002.5917749036,-0.04449612647294998,0.4073296785354614,0.748614490032196,0.025450827553868294,0.2617015838623047,1.625251054763794,1.075137734413147,-0.3019498884677887
305002.59577490354,-0.06881110370159149,0.4483475089073181,1.1269911527633667,0.41478031873703003,0.03351133316755295,1.5540639162063599,2.2286324501037598,0.6827689409255981
305002.59977490356,-0.08627569675445557,0.4168909788131714,1.418561577796936,0.8814107775688171,-0.20156681537628174,1.0489240884780884,3.148740768432617,1.9670612812042236
305002.6037749036,-0.09926378726959229,0.4707406759262085,1.6078126430511475,1.000767707824707,-0.30709952116012573,1.1986520290374756,3.7181925773620605,2.2151618003845215
305002.6077749036,-0.04499032348394394,0.07258658111095428,0.728648841381073,1.1538872718811035,0.42378830909729004,-0.4111914038658142,0.43626827001571655,1.8205163478851318
305002.61177490355,-0.05384179204702377,0.013587195426225662,0.7650792002677917,1.5857220888137817,1.2435423135757446,0.21318645775318146,0.3614840805530548,1.1979795694351196
305002.61577490356,-0.0552610419690609,-0.06860387325286865,0.6656692028045654,1.8027855157852173,2.057415723800659,1.0722072124481201,0.35481026768684387,0.18893568217754364
305002.6197749036,-0.0637960210442543,-0.07687996327877045,0.7520517110824585,2.0727286338806152,2.3687198162078857,1.2258611917495728,0.30138251185417175,0.06100144609808922
305002.6237749036,-0.003586679697036743,-0.12701155245304108,0.02088497392833233,0.5116841197013855,1.2401846647262573,1.6637883186340332,3.3947088718414307,0.9016005396842957
305002.62777490355,0.01844208687543869,-0.12640659511089325,-0.10543382167816162,0.26918545365333557,1.0285396575927734,1.8034977912902832,4.1978960037231445,2.614703416824341
305002.63177490357,0.04437645524740219,-0.09417595714330673,-0.24944521486759186,-0.10218366980552673,0.5391208529472351,1.566792368888855,3.9745430946350098,4.414572715759277
305002.6357749036,0.050572287291288376,-0.10890655219554901,-0.2868625819683075,-0.13569140434265137,0.5995074510574341,1.809099793434143,4.714600563049316,5.017181873321533
305002.6397749036,0.06402642279863358,0.041221071034669876,-0.05353999882936478,-0.17647190392017365,-0.1424054503440857,-0.3671022653579712,-0.07107575237751007,-0.03315872699022293
305002.64377490355,0.12233101576566696,0.18140192329883575,0.17863725125789642,0.1561657041311264,0.24342745542526245,0.13248459994792938,0.4610757827758789,0.3673514127731323
305002.64777490357,0.1772322952747345,0.3344231843948364,0.46655726432800293,0.5937727093696594,0.7452842593193054,0.8670315742492676,1.1847684383392334,1.1251004934310913
305002.6517749036,0.20213693380355835,0.3834925889968872,0.5361526608467102,0.6817842125892639,0.8438048958778381,0.9600405097007751,1.2866055965423584,1.202345609664917
305002.6557749036,0.15002155303955078,0.37227287888526917,0.6730698943138123,1.050152063369751,1.4619858264923096,1.5852653980255127,1.842314600944519,2.21545672416687
305002.65977490356,0.24348169565200806,0.6353747844696045,1.1036628484725952,1.5611122846603394,1.8441604375839233,1.790500283241272,1.7866238355636597,1.8076958656311035
305002.6637749036,0.32224854826927185,0.8629414439201355,1.452590823173523,1.8706367015838623,1.9401367902755737,1.6670621633529663,1.1770524978637695,0.7439634799957275
305002.6677749036,0.36633870005607605,0.9837124943733215,1.6563725471496582,2.1687326431274414,2.2214906215667725,1.916135311126709,1.388546109199524,0.8350668549537659
305002.6717749036,0.25716280937194824,0.6408370137214661,0.8189088702201843,0.604961633682251,0.16642449796199799,-0.07035066187381744,-0.08285535126924515,1.1578843593597412
305002.67577490356,0.3971070647239685,0.969109058380127,1.1209043264389038,0.6518633961677551,0.049454428255558014,-0.07882162928581238,0.573091447353363,2.770059585571289
305002.6797749036,0.45616599917411804,1.1114161014556885,1.2889983654022217,0.7566900849342346,0.03516790643334389,-0.14879901707172394,0.6025840044021606,3.354837656021118
305002.6837749036,0.26372700929641724,0.5535159707069397,0.2960452437400818,-0.21505366265773773,0.040764011442661285,1.075256586074829,2.1751279830932617,1.5728487968444824
305002.68777490355,0.3863837420940399,0.6784550547599792,0.1963246464729309,-0.18102122843265533,0.6840852499008179,2.0173635482788086,2.1945459842681885,1.0623691082000732
305002.69177490356,0.4766640067100525,0.7114577889442444,0.03601883724331856,-0.06402873992919922,1.403163194656372,2.7847914695739746,1.6237655878067017,0.2613852322101593
305002.6957749036,0.541781485080719,0.807508111000061,0.03318708389997482,-0.07627227157354355,1.6168628931045532,3.208714723587036,1.8566561937332153,0.1931232064962387
305002.6997749036,0.29075008630752563,0.23811228573322296,-0.17059923708438873,0.5677647590637207,1.4803051948547363,0.5206887722015381,-0.5033584833145142,1.2578109502792358
305002.70377490355,0.4101710915565491,0.2090170532464981,-0.12385445833206177,1.1242430210113525,1.607961893081665,0.0817355364561081,0.6077460050582886,2.17012095451355
305002.70777490357,0.49023860692977905,0.1291501373052597,-0.02559085190296173,1.6216996908187866,1.3905179500579834,-0.4258756637573242,2.065856695175171,2.788398265838623
305002.7117749036,0.5553160905838013,0.14326629042625427,-0.03300457447767258,1.8639930486679077,1.5978115797042847,-0.5335049033164978,2.357888698577881,3.27366304397583
305002.7157749036,0.274170845746994,-0.06264331191778183,0.3467872738838196,1.0924707651138306,-0.04563087597489357,0.831208348274231,1.8333454132080078,-0.16312077641487122
305002.71977490355,0.3668374717235565,-0.12702234089374542,0.7602521181106567,1.1301875114440918,-0.09455063939094543,1.8132619857788086,1.376548409461975,0.4921899735927582
305002.72377490357,0.41903194785118103,-0.18319225311279297,1.1616586446762085,0.9429855346679688,-0.048129867762327194,2.6687512397766113,0.5201911926269531,1.4547899961471558
305002.7277749036,0.4754321873188019,-0.21484065055847168,1.3338268995285034,1.0628103017807007,-0.11568330973386765,3.115628242492676,0.5030443668365479,1.6212602853775024
305002.7317749036,0.21350505948066711,-0.07208463549613953,0.8669931292533875,-0.056724973022937775,0.9931373000144958,0.7859945297241211,0.3161441385746002,2.3114535808563232
305002.73577490356,0.2729251980781555,-0.00903319101780653,1.1366522312164307,-0.15091878175735474,1.7443312406539917,0.45034557580947876,1.4347562789916992,1.8134281635284424
305002.7397749036,0.30025729537010193,0.08276313543319702,1.2513561248779297,-0.18687421083450317,2.353801965713501,-0.021141719073057175,2.5843024253845215,0.7778103351593018
305002.7437749036,0.3403327763080597,0.09647566080093384,1.4287439584732056,-0.2577928304672241,2.688823699951172,-0.07887917757034302,3.0374739170074463,0.8273123502731323
305002.7477749036,0.13488969206809998,0.20459002256393433,0.42796242237091064,0.3643903434276581,0.7682968974113464,0.5967548489570618,1.1944712400436401,0.6022791862487793
305002.75177490356,0.15783622860908508,0.415382444858551,0.34160104393959045,0.9568602442741394,0.3943820893764496,1.7164335250854492,0.5967772006988525,2.076829195022583
305002.7557749036,0.15821096301078796,0.6195237040519714,0.16919004917144775,1.5402215719223022,-0.1655503809452057,2.822892189025879,-0.16271556913852692,3.4914774894714355
305002.7597749036,0.17886188626289368,0.7053305506706238,0.17783166468143463,1.7778186798095703,-0.21027584373950958,3.2953481674194336,-0.32260429859161377,4.106777667999268
305002.7637749036,0.046423252671957016,0.580771803855896,-0.11562321335077286,1.1888519525527954,0.20943373441696167,0.8514365553855896,1.4966250658035278,0.08526821434497833
305002.76777490356,0.05264205485582352,0.926358699798584,-0.16070300340652466,1.627528190612793,0.7266883254051208,0.663104236125946,2.9148855209350586,-0.052292391657829285
305002.7717749036,0.06102301552891731,1.0652838945388794,-0.179984450340271,1.8907893896102905,0.8260921835899353,0.7779776453971863,3.3717637062072754,-0.22229911386966705
305002.7757749036,-0.00184164522215724,0.5722549557685852,0.0829891785979271,0.34103816747665405,1.346970796585083,-0.2869505286216736,1.2807236909866333,1.8427340984344482
305002.77977490355,-0.02221439965069294,0.7902191877365112,0.3669143617153168,0.12983699142932892,1.8368926048278809,0.5400367379188538,0.6085404753684998,2.7563955783843994
305002.78377490357,-0.04350873455405235,0.9186132550239563,0.6867786645889282,-0.14269153773784637,2.0131924152374268,1.6318637132644653,-0.32098710536956787,3.0772323608398438
305002.7877749036,-0.050931137055158615,1.048214077949524,0.7827271819114685,-0.20821507275104523,2.3289268016815186,1.8553459644317627,-0.44685474038124084,3.6839804649353027
305002.7917749036,-0.047997187823057175,0.400590717792511,0.7785159349441528,-0.0050833686254918575,0.16015417873859406,1.6023105382919312,0.9790698289871216,-0.5995032787322998
305002.79577490356,-0.07029835879802704,0.44546037912368774,1.1861217021942139,0.3695767819881439,-0.14057184755802155,1.5711098909378052,1.9130215644836426,0.7091390490531921
305002.7997749036,-0.08494775742292404,0.41766357421875,1.4749280214309692,0.8243152499198914,-0.43394091725349426,1.184948444366455,2.6475799083709717,2.4231486320495605
305002.8037749036,-0.09747395664453506,0.4719240665435791,1.6937198638916016,0.9415079951286316,-0.5392201542854309,1.3462284803390503,3.109666347503662,2.8554229736328125
305002.8077749036,-0.043865833431482315,0.06779352575540543,0.7059214115142822,1.0960239171981812,0.41521069407463074,-0.14441069960594177,0.855473518371582,1.9564837217330933
305002.81177490356,-0.0547708161175251,0.01805863156914711,0.7624499201774597,1.4912762641906738,1.1895302534103394,0.43161481618881226,0.4346163272857666,1.2727711200714111
305002.8157749036,-0.058135680854320526,-0.04549479857087135,0.6802642941474915,1.7161061763763428,1.9711999893188477,1.1887685060501099,0.05890502408146858,0.0641327053308487
305002.8197749036,-0.06647423654794693,-0.056496284902095795,0.768765926361084,1.9738253355026245,2.265141487121582,1.3480522632598877,-0.06701351702213287,0.04438735544681549
305002.8237749036,-0.006287092808634043,-0.10075512528419495,-0.022069061174988747,0.4861859977245331,1.2961965799331665,1.7739908695220947,1.6297528743743896,0.8907862305641174
305002.82777490356,0.016164617612957954,-0.12255040556192398,-0.16237221658229828,0.2713918089866638,1.030697226524353,1.807672142982483,2.121495246887207,1.9375509023666382
305002.8317749036,0.04330213740468025,-0.12161360681056976,-0.30237361788749695,-0.03757345303893089,0.460277795791626,1.4907052516937256,2.2571160793304443,2.7696845531463623
305002.8357749036,0.050248175859451294,-0.1390157788991928,-0.3565952479839325,-0.07317850738763809,0.5067420601844788,1.6945350170135498,2.633603096008301,3.273452043533325
305002.8397749036,0.06460456550121307,0.04583854228258133,-0.0168849416077137,-0.17691318690776825,-0.2977938950061798,-0.053039900958538055,-0.21435073018074036,-0.25867170095443726
305002.84377490357,0.12312820553779602,0.1842823177576065,0.1937291920185089,0.14569680392742157,0.09576061367988586,0.3223436176776886,0.21945786476135254,0.21521705389022827
305002.8477749036,0.1777060478925705,0.3338300287723541,0.4599573016166687,0.5748714208602905,0.6563432812690735,0.8546529412269592,0.9017148613929749,1.0889140367507935
305002.8517749036,0.20253366231918335,0.38115108013153076,0.5238134264945984,0.6585851311683655,0.7274060249328613,0.9405902624130249,0.9778192043304443,1.1099236011505127
305002.8557749036,0.14935259521007538,0.36582642793655396,0.6597691178321838,0.9888850450515747,1.334769368171692,1.65273916721344,2.1666100025177,2.5829997062683105
305002.85977490357,0.24275368452072144,0.619264543056488,1.0977057218551636,1.4764906167984009,1.8375061750411987,1.91966712474823,1.9435791969299316,1.9297796487808228
305002.8637749036,0.32161760330200195,0.8378000259399414,1.4598069190979004,1.8506419658660889,2.114060163497925,1.8307307958602905,1.2018200159072876,0.5575550198554993
305002.8677749036,0.36592337489128113,0.9559211730957031,1.6793774366378784,2.0971016883850098,2.4567952156066895,2.1398110389709473,1.3795331716537476,0.5915496945381165
305002.8717749036,0.23003585636615753,0.5674301385879517,0.7800910472869873,0.6977895498275757,0.1730036437511444,-0.3669607639312744,-0.2627178430557251,0.6301843523979187
305002.8757749036,0.34432467818260193,0.7929684519767761,0.8857587575912476,0.4802885055541992,-0.12692932784557343,-0.021043315529823303,0.855133593082428,1.9482403993606567
305002.8797749036,0.4301474690437317,0.9431883692741394,0.8554390668869019,0.10255787521600723,-0.43853476643562317,0.5321333408355713,2.180172920227051,3.304445743560791
305002.8837749036,0.4897143840789795,1.0723930597305298,0.9724262952804565,0.10112728923559189,-0.5260953903198242,0.5963299870491028,2.4985878467559814,3.80962872505188
305002.8877749036,0.2857625484466553,0.45494017004966736,0.13302209973335266,-0.18378446996212006,0.4148729145526886,1.6944786310195923,1.4695026874542236,0.49636656045913696
305002.8917749036,0.4071297347545624,0.546061635017395,0.008415951393544674,0.017298050224781036,1.2381300926208496,2.1700236797332764,0.8744125962257385,0.326555997133255
305002.8957749036,0.48979493975639343,0.5597891211509705,-0.1505698412656784,0.33136793971061707,2.084022045135498,2.2202348709106445,-0.14586378633975983,0.30093348026275635
305002.8997749036,0.5574776530265808,0.6364046931266785,-0.18116798996925354,0.3754066526889801,2.386639356613159,2.570749282836914,-0.20721663534641266,0.14801858365535736
305002.9037749036,0.31662169098854065,0.12944748997688293,-0.04007360711693764,1.027476191520691,1.1666141748428345,-0.06280992925167084,0.869084894657135,1.970841407775879
305002.9077749036,0.47476232051849365,0.1395716667175293,0.025362098589539528,1.6632312536239624,1.3548029661178589,-0.11690358817577362,2.0089163780212402,2.784883975982666
305002.9117749036,0.5456432700157166,0.16268281638622284,0.01596066728234291,1.9197553396224976,1.5926690101623535,-0.1671275943517685,2.276228666305542,3.289832830429077
305002.9157749036,0.2709088921546936,-0.050289250910282135,0.35159921646118164,1.0006675720214844,-0.11707911640405655,0.7655820846557617,1.9366828203201294,-0.43698176741600037
305002.91977490357,0.3625600337982178,-0.11844002455472946,0.773004412651062,1.0637001991271973,-0.09909602254629135,1.7822209596633911,1.3097217082977295,0.34009838104248047
305002.9237749036,0.416433721780777,-0.18051157891750336,1.1852859258651733,0.9189943075180054,0.035080328583717346,2.6675007343292236,0.21400825679302216,1.6014777421951294
305002.9277749036,0.4726068079471588,-0.21062079071998596,1.3561028242111206,1.0469391345977783,0.02108321338891983,3.152874231338501,0.22723186016082764,1.840288519859314
305002.9317749036,0.21708382666110992,-0.04943559318780899,0.8262611031532288,-0.11917991936206818,0.9816274642944336,0.8157033324241638,0.2460108995437622,1.9738153219223022
305002.93577490357,0.2760188579559326,-0.0059323483146727085,1.10160493850708,-0.1838216334581375,1.7187552452087402,0.268715500831604,1.5667861700057983,1.5295913219451904
305002.9397749036,0.3024838864803314,0.059966426342725754,1.2410945892333984,-0.20832134783267975,2.277401924133301,-0.4476143419742584,3.03462553024292,0.5726925134658813
305002.9437749036,0.3430692255496979,0.06610054522752762,1.4115393161773682,-0.266609787940979,2.676206111907959,-0.5736455321311951,3.492201805114746,0.6284312009811401
305002.9477749036,0.1349109262228012,0.20382414758205414,0.42698729038238525,0.3811933100223541,0.6992952227592468,0.5146636962890625,2.1202027797698975,0.7040713429450989
305002.9517749036,0.15913350880146027,0.41002169251441956,0.3486616313457489,0.9801501631736755,0.365852415561676,1.574665904045105,1.112856388092041,2.193908929824829
305002.9557749036,0.16137628257274628,0.6034987568855286,0.1879574954509735,1.5793455839157104,-0.14105786383152008,2.6715683937072754,-0.20208656787872314,3.5813040733337402
305002.9597749036,0.18221239745616913,0.6920081973075867,0.19487689435482025,1.8208125829696655,-0.17663618922233582,3.0555641651153564,-0.4923677146434784,4.286290645599365
305002.9637749036,0.05207110196352005,0.5181317329406738,-0.12248712033033371,1.0503298044204712,-0.007398383691906929,0.9133017659187317,1.1261283159255981,0.4153139591217041
305002.9677749036,0.042925454676151276,0.7786083817481995,-0.13027295470237732,1.2011274099349976,0.6378752589225769,0.6067270040512085,1.9789867401123047,0.673713743686676
305002.9717749036,0.023176316171884537,0.9750611186027527,-0.0991947278380394,1.1493703126907349,1.3727531433105469,0.14983855187892914,2.5803658962249756,1.0610491037368774
305002.9757749036,0.02496623620390892,1.1120210886001587,-0.11152840405702591,1.3150337934494019,1.5882349014282227,0.09135819971561432,2.987229824066162,1.1166096925735474
305002.9797749036,-0.011602960526943207,0.5343642234802246,0.24371926486492157,0.043877940624952316,1.4904330968856812,0.21009185910224915,0.30767711997032166,2.3025803565979004
305002.9837749036,-0.03419444337487221,0.7007765769958496,0.5910609364509583,-0.1352536380290985,1.5509192943572998,1.346922755241394,0.29360610246658325,2.040728807449341
305002.9877749036,-0.05785959213972092,0.7851575016975403,0.9406664371490479,-0.3187483847141266,1.314353108406067,2.5669431686401367,0.401795357465744,1.0579620599746704
305002.9917749036,-0.06616341322660446,0.8930455446243286,1.0765693187713623,-0.3955170810222626,1.492048740386963,2.971919059753418,0.38068029284477234,1.2256321907043457
305002.9957749036,-0.05280933901667595,0.32240742444992065,0.8056829571723938,0.19087466597557068,-0.28394001722335815,1.3588769435882568,1.6976425647735596,0.17613627016544342
305002.9997749036,-0.06996779143810272,0.32950177788734436,1.1528167724609375,0.766552746295929,-0.1878255158662796,0.8468502759933472,2.056222915649414,1.4996833801269531
305003.0037749036,-0.07755356281995773,0.2762436270713806,1.3800135850906372,1.377068042755127,0.0625823363661766,0.059488050639629364,2.0443899631500244,2.8839356899261475
305003.0077749036,-0.08885468542575836,0.3097146451473236,1.5654184818267822,1.5886011123657227,0.04483896866440773,-0.008064905181527138,2.3700172901153564,3.403090715408325
305003.0117749036,-0.03811344876885414,0.00631658686324954,0.5422137975692749,1.1910350322723389,1.0255259275436401,-0.02923666127026081,-0.19295701384544373,0.736822247505188
305003.0157749036,-0.03967628628015518,-0.06126915290951729,0.5189615488052368,1.4043183326721191,1.68048894405365,0.9444273710250854,0.2768135666847229,0.5536229610443115
305003.0197749036,-0.03237053379416466,-0.14021466672420502,0.3873874843120575,1.4113008975982666,2.1637370586395264,2.006171941757202,1.0419492721557617,0.4027841091156006
305003.0237749036,-0.036882128566503525,-0.15654434263706207,0.43227311968803406,1.6257685422897339,2.479440450668335,2.3478548526763916,1.1336373090744019,0.3654133677482605
305003.02777490363,0.018578089773654938,-0.07714932411909103,-0.0685882717370987,0.05634687468409538,0.5849192142486572,1.302911639213562,1.8485134840011597,2.4167239665985107
305003.0317749036,0.045080967247486115,-0.0916270762681961,-0.14045047760009766,-0.12033059448003769,0.4895821809768677,1.4885958433151245,2.358181953430176,3.5519042015075684
305003.0357749036,0.05122862383723259,-0.10508543998003006,-0.15967434644699097,-0.14940659701824188,0.5743737816810608,1.759706974029541,2.7752044200897217,4.212710380554199
305003.0397749036,0.06459182500839233,0.03671988099813461,-0.06424155086278915,-0.06597188115119934,-0.19650447368621826,-0.3625801205635071,-0.28498801589012146,-0.008790534920990467
305003.0437749036,0.12254936248064041,0.17616865038871765,0.16850826144218445,0.22685828804969788,0.1594904512166977,0.16555151343345642,0.2724732756614685,0.3323226273059845
305003.0477749036,0.17711827158927917,0.3305298686027527,0.45535406470298767,0.6039978861808777,0.6665283441543579,0.8958640098571777,1.1311724185943604,1.0793911218643188
305003.0517749036,0.20193098485469818,0.3795502185821533,0.5223643183708191,0.6883643269538879,0.7391819357872009,1.0094300508499146,1.2578024864196777,1.1053739786148071
305003.0557749036,0.15053175389766693,0.3780965209007263,0.6591262817382812,0.9661804437637329,1.339848518371582,1.6412391662597656,1.8661187887191772,1.956721544265747
305003.0597749036,0.24197295308113098,0.6315107345581055,1.053871989250183,1.4635587930679321,1.7921139001846313,1.9352648258209229,2.006479024887085,1.701423168182373
305003.0637749036,0.31755056977272034,0.8461259603500366,1.3602606058120728,1.854176640510559,2.0013391971588135,1.8051931858062744,1.6283663511276245,0.9246383905410767
305003.0677749036,0.36148396134376526,0.964660108089447,1.5570727586746216,2.107743978500366,2.285191059112549,2.0744452476501465,1.8565465211868286,1.0293667316436768
305003.0717749036,0.22722473740577698,0.6027882099151611,0.7977152466773987,0.6992800831794739,0.21789363026618958,-0.20659537613391876,-0.16852791607379913,0.2278866022825241
305003.0757749036,0.34257039427757263,0.830758273601532,0.8938708305358887,0.5436362624168396,0.0631568655371666,0.06453860551118851,0.8539978265762329,1.9547497034072876
305003.0797749036,0.4320402443408966,0.9678549766540527,0.8512333035469055,0.2561689615249634,-0.07140378654003143,0.5081602931022644,2.0678255558013916,3.711059093475342
305003.0837749036,0.49100884795188904,1.1022148132324219,0.9629745483398438,0.2638393044471741,-0.11540111154317856,0.5317701697349548,2.3902721405029297,4.397429943084717
305003.08777490363,0.283661425113678,0.4668499231338501,0.11729646474123001,-0.08078604191541672,0.41928017139434814,1.6087836027145386,3.448702096939087,0.6349889039993286
305003.0917749036,0.40676164627075195,0.5520390868186951,0.009180208668112755,0.1060602068901062,1.3162658214569092,2.0643718242645264,2.508091449737549,0.579518735408783
305003.0957749036,0.4923441708087921,0.5597700476646423,-0.12636184692382812,0.3665384352207184,2.242671489715576,2.1180872917175293,0.8979350924491882,0.5761603116989136
305003.0997749036,0.5607328414916992,0.6357218623161316,-0.15978318452835083,0.39611637592315674,2.5682690143585205,2.4393997192382812,0.8648404479026794,0.5205132961273193
305003.10377490363,0.2893243730068207,0.14896489679813385,-0.12585334479808807,0.8964680433273315,1.2855595350265503,-0.27974793314933777,0.3671303987503052,2.25797963142395
305003.1077749036,0.40317150950431824,0.10539118945598602,0.04620085656642914,1.457981824874878,1.11387038230896,-0.23060670495033264,1.5476782321929932,2.22750186920166
305003.1117749036,0.4759906232357025,0.028544778004288673,0.2677100598812103,1.89139986038208,0.6828571557998657,0.030397363007068634,2.6918160915374756,1.6747384071350098
305003.1157749036,0.5409073829650879,0.030004652217030525,0.29922279715538025,2.1776795387268066,0.7403293251991272,-0.018560389056801796,3.2091565132141113,1.9431878328323364
305003.11977490364,0.2578718960285187,-0.08200784772634506,0.5566313862800598,0.774459183216095,-0.16554167866706848,1.4199140071868896,1.0541075468063354,-0.20187366008758545
305003.1237749036,0.3466511070728302,-0.1434236764907837,0.9966079592704773,0.6840547323226929,0.27153491973876953,2.1062982082366943,0.6429600715637207,1.1006454229354858
305003.1277749036,0.3979718089103699,-0.18463082611560822,1.3816641569137573,0.42851296067237854,0.8289498686790466,2.4818942546844482,0.09373845905065536,2.632899522781372
305003.1317749036,0.4513580799102783,-0.21621760725975037,1.5869574546813965,0.46938204765319824,0.9373869299888611,2.9141387939453125,0.04433203861117363,3.0688600540161133
305003.13577490364,0.19619469344615936,-0.007527587469667196,0.8477373123168945,-0.192264124751091,1.3256819248199463,0.269690603017807,1.2534879446029663,1.1664481163024902
305003.1397749036,0.24743276834487915,0.08209826052188873,1.0252536535263062,-0.033304646611213684,1.7285091876983643,0.25072818994522095,2.1703901290893555,0.6745077967643738
305003.1437749036,0.26888129115104675,0.19134241342544556,1.0520975589752197,0.18489715456962585,1.8724048137664795,0.26542937755584717,2.785496234893799,0.10641476511955261
305003.1477749036,0.3047621548175812,0.21701641380786896,1.1942121982574463,0.2163293957710266,2.1403369903564453,0.24757958948612213,3.2388434410095215,0.04671422764658928
305003.15177490364,0.11368266493082047,0.29058098793029785,0.24012073874473572,0.6950001120567322,0.2451944649219513,1.3265156745910645,0.24972942471504211,1.7106763124465942
305003.1557749036,0.12834253907203674,0.5252009630203247,0.12178991734981537,1.3211491107940674,-0.08889833837747574,2.1054463386535645,0.34185588359832764,2.555560827255249
305003.1597749036,0.12291906028985977,0.7377391457557678,-0.05572430044412613,1.8890348672866821,-0.4638100862503052,2.644535779953003,0.5219828486442566,2.9978179931640625
305003.16377490363,0.13900551199913025,0.8398728966712952,-0.0668983906507492,2.165512800216675,-0.5829160213470459,3.026106119155884,0.5538401007652283,3.5211260318756104
305003.16777490365,0.03229190409183502,0.5347943305969238,-0.1561351716518402,0.9217578172683716,0.4402037560939789,0.29157155752182007,1.8409268856048584,-0.31419065594673157
305003.1717749036,0.019715942442417145,0.792788565158844,-0.03640521317720413,0.900856077671051,1.3285737037658691,-0.01615624688565731,2.220899820327759,0.7897143959999084
305003.1757749036,-0.0016212391201406717,0.9847956895828247,0.12380927056074142,0.6876413822174072,2.234907865524292,-0.29570361971855164,2.1110358238220215,2.2764534950256348
305003.17977490363,-0.0025209677405655384,1.1212081909179688,0.14260853826999664,0.7713994979858398,2.5879852771759033,-0.4378034174442291,2.484288215637207,2.5985002517700195
305003.18377490365,-0.02858213149011135,0.5221341848373413,0.41826415061950684,-0.2148139327764511,1.1604974269866943,1.0826107263565063,-0.25925683975219727,1.8032952547073364
305003.1877749036,-0.048360515385866165,0.6511521339416504,0.8621382117271423,-0.21645750105381012,0.9390136003494263,1.9605227708816528,0.36245256662368774,1.3521355390548706
305003.1917749036,-0.06552134454250336,0.694547712802887,1.286556363105774,-0.14695729315280914,0.4379308223724365,2.6259067058563232,1.333479404449463,0.6300222873687744
305003.19577490364,-0.07496697455644608,0.7883843183517456,1.4767074584960938,-0.18635176122188568,0.4968026578426361,3.0583322048187256,1.4842835664749146,0.613038957118988
305003.19977490365,-0.051055245101451874,0.23441599309444427,0.8757604360580444,0.5514138340950012,-0.1794230192899704,0.5169415473937988,1.8632739782333374,1.239323616027832
305003.2037749036,-0.06986915320158005,0.21309629082679749,1.134504795074463,1.1392855644226074,0.2060418426990509,0.26739004254341125,1.6874176263809204,2.2187321186065674
305003.2077749036,-0.08147899806499481,0.14817467331886292,1.225326657295227,1.6850073337554932,0.7213038206100464,0.0033091381192207336,1.0261849164962769,2.9013407230377197
305003.21177490364,-0.09377441555261612,0.16164126992225647,1.4021344184875488,1.9339507818222046,0.8075960874557495,-0.04969487339258194,1.155623197555542,3.4243483543395996
305003.21577490366,-0.031151413917541504,-0.030874034389853477,0.3664591312408447,0.9866641163825989,1.4400163888931274,0.7001420259475708,-0.27000030875205994,0.01930176094174385
305003.2197749036,-0.027111539617180824,-0.09728068858385086,0.2463616579771042,1.0422043800354004,1.9009863138198853,1.6163572072982788,1.4591763019561768,0.7927934527397156
305003.2237749036,-0.01502404548227787,-0.16094154119491577,0.03977556526660919,0.881217360496521,2.0707223415374756,2.4867184162139893,3.695375919342041,1.8431485891342163
305003.22777490364,-0.016720877960324287,-0.188616544008255,0.03936241939663887,1.0055850744247437,2.362304925918579,2.858027696609497,4.117263317108154,2.000624895095825
305003.23177490366,0.02874123863875866,-0.06417646259069443,-0.11725012212991714,-0.046127770096063614,0.25979697704315186,0.7279372811317444,2.6014115810394287,1.8953654766082764
305003.2357749036,0.06766439229249954,-0.0006605577073059976,-0.08862536400556564,-0.10906529426574707,0.07849021255970001,0.1952165961265564,1.5776795148849487,1.5210514068603516
305003.23977490363,0.10665170848369598,0.0843207836151123,-0.022120673209428787,-0.143830806016922,-0.10142438858747482,-0.4794237017631531,0.0026614039670675993,0.7539246678352356
305003.24377490365,0.12160610407590866,0.09567658603191376,-0.03508658707141876,-0.20241297781467438,-0.1650184988975525,-0.6306657195091248,-0.17671062052249908,0.8020493984222412
305003.24777490366,0.10738877952098846,0.20871254801750183,0.28764259815216064,0.35944104194641113,0.5214797258377075,0.5205807685852051,0.5775296688079834,0.5665667057037354
305003.2517749036,0.18367624282836914,0.4127764403820038,0.6659777760505676,0.9887617230415344,1.378221869468689,1.4628217220306396,1.9664820432662964,2.045339345932007
305003.25577490364,0.2508217394351959,0.6041496396064758,1.0405676364898682,1.6304453611373901,2.22426438331604,2.3457164764404297,3.340604782104492,3.3457956314086914
305003.25977490365,0.28549066185951233,0.6925264596939087,1.1899592876434326,1.8662238121032715,2.5811285972595215,2.7342417240142822,3.8927719593048096,4.047034740447998
305003.26377490367,0.19196003675460815,0.5112420916557312,0.8603755235671997,1.1835285425186157,1.277911901473999,0.9630312323570251,0.532047688961029,0.0743589997291565
305003.2677749036,0.29554423689842224,0.7488074898719788,1.1872069835662842,1.2979577779769897,1.0861403942108154,0.6267607808113098,0.25421059131622314,0.06904276460409164
305003.27177490364,0.37783822417259216,0.922566294670105,1.3832942247390747,1.1978553533554077,0.6543568968772888,0.10125058144330978,0.0249922014772892,0.40256035327911377
305003.27577490365,0.42981579899787903,1.0489370822906494,1.5803253650665283,1.3683180809020996,0.7152732610702515,0.054542142897844315,-0.05235547572374344,0.27983689308166504
305003.27977490367,0.26086971163749695,0.5769915580749512,0.4814036190509796,0.05302533134818077,-0.24282215535640717,0.36392003297805786,1.387623906135559,2.5777029991149902
305003.2837749036,0.38275063037872314,0.7479631900787354,0.4216501712799072,-0.09185037761926651,0.18357008695602417,1.3806055784225464,2.1707708835601807,2.6153368949890137
305003.28777490364,0.4715254008769989,0.8276523947715759,0.2614716589450836,-0.25773710012435913,0.7376412153244019,2.476905345916748,2.6239075660705566,1.965346097946167
305003.29177490366,0.535959005355835,0.9378643035888672,0.2881666123867035,-0.31225067377090454,0.8241180181503296,2.8393542766571045,3.084089756011963,2.342633008956909
305003.2957749037,0.3179493248462677,0.31503352522850037,-0.12650077044963837,0.37755143642425537,1.510764718055725,0.9836223721504211,-0.06423437595367432,0.6639235019683838
305003.29977490363,0.476802259683609,0.4066673219203949,-0.2051362246274948,0.8293335437774658,2.377207040786743,0.9393371939659119,-0.24110247194766998,2.049424171447754
305003.30377490364,0.547847330570221,0.4701622724533081,-0.2338244765996933,0.947583794593811,2.7291696071624756,1.1304060220718384,-0.34228143095970154,2.292065143585205
305003.30777490366,0.29119738936424255,0.06382745504379272,0.018944313749670982,0.9715903401374817,0.7871478796005249,-0.40806177258491516,1.3162764310836792,1.7840138673782349
305003.3117749036,0.39709028601646423,0.013397974893450737,0.27311769127845764,1.4149740934371948,0.46651744842529297,0.24490505456924438,2.307896375656128,1.2464624643325806
305003.31577490363,0.4631958305835724,-0.051288630813360214,0.5732318162918091,1.7200284004211426,-0.02391055040061474,1.1377923488616943,2.9998488426208496,0.32410985231399536
305003.31977490365,0.5243135094642639,-0.059726372361183167,0.6554304957389832,1.9561885595321655,-0.06294883787631989,1.2880953550338745,3.5647048950195312,0.28318125009536743
305003.32377490366,0.2491723597049713,-0.12521375715732574,0.7320354580879211,0.5084514617919922,-0.050611115992069244,1.6968103647232056,0.11398691684007645,1.1904571056365967
305003.3277749036,0.32983025908470154,-0.12601251900196075,1.1575126647949219,0.2721712589263916,0.6256674528121948,1.8438899517059326,0.3073248863220215,2.2228128910064697
305003.33177490364,0.3734419345855713,-0.09857578575611115,1.482147216796875,-0.08628320693969727,1.400950312614441,1.5516704320907593,0.6121865510940552,2.934290885925293
305003.33577490365,0.4238021671772003,-0.11164285242557526,1.704559326171875,-0.11020907014608383,1.6248490810394287,1.7758359909057617,0.6136477589607239,3.438737154006958
305003.33977490367,0.17531763017177582,0.048496466130018234,0.7736803889274597,-0.14619450271129608,1.5452475547790527,-0.04070037975907326,1.814963459968567,-0.31912973523139954
305003.3437749036,0.21756908297538757,0.1835690140724182,0.8586893081665039,0.14226220548152924,1.6374329328536987,0.3719135522842407,2.070373773574829,0.05535687506198883
305003.34777490364,0.23223333060741425,0.3316460847854614,0.791182279586792,0.5445229411125183,1.390092134475708,0.9451213479042053,1.7864181995391846,0.8435330986976624
305003.35177490365,0.2630927264690399,0.37834492325782776,0.8972647190093994,0.6124004125595093,1.5657627582550049,1.0510005950927734,2.065056085586548,0.851212203502655
305003.35577490367,0.09130428731441498,0.3640815019607544,0.05900059640407562,1.0221614837646484,-0.2852058410644531,1.5741662979125977,-0.24356497824192047,2.278635025024414
305003.3597749036,0.10001234710216522,0.6297296285629272,-0.047852758318185806,1.5064103603363037,-0.23173460364341736,1.9031128883361816,0.9880551695823669,1.8376269340515137
305003.36377490364,0.09319457411766052,0.8615931868553162,-0.1663309633731842,1.8233565092086792,-0.03848763182759285,1.832573413848877,2.8117165565490723,0.743194580078125
305003.36777490366,0.1043984666466713,0.9859107136726379,-0.20210309326648712,2.0822784900665283,-0.06623098254203796,2.1169230937957764,3.049553394317627,0.832709789276123
305003.3717749037,0.018576595932245255,0.5877271294593811,-0.03962107375264168,0.67265385389328,1.0212278366088867,-0.09957130253314972,3.7373640537261963,0.5820563435554504
305003.37577490363,-0.0009233658784069121,0.8038867712020874,0.15645940601825714,0.49907687306404114,1.7840194702148438,0.12764966487884521,2.9439399242401123,1.7657225131988525
305003.37977490365,-0.02738150954246521,0.9416174292564392,0.3916034996509552,0.18547213077545166,2.3774328231811523,0.492080956697464,1.3808361291885376,2.904905319213867
305003.38377490366,-0.031990278512239456,1.0717172622680664,0.44690486788749695,0.186131551861763,2.7770609855651855,0.4828609824180603,1.4090064764022827,3.4167251586914062
305003.3877749037,-0.03404037654399872,0.45617911219596863,0.609879195690155,-0.1432839184999466,0.7199437022209167,1.6490658521652222,-0.21750348806381226,0.5091519951820374
305003.39177490363,-0.05917072668671608,0.5466911792755127,1.0385704040527344,0.0430343821644783,0.32668232917785645,2.090559959411621,1.0899676084518433,0.44334009289741516
305003.39577490365,-0.07993771135807037,0.5581398010253906,1.4023226499557495,0.31237009167671204,-0.2560032606124878,2.171233892440796,2.5763139724731445,0.5087061524391174
305003.39977490366,-0.09063270688056946,0.6339317560195923,1.5972216129302979,0.33542996644973755,-0.3295135200023651,2.532459259033203,3.0339744091033936,0.44749727845191956
305003.4037749037,-0.05056534707546234,0.14642317593097687,0.8826974034309387,0.8614057898521423,0.04497535154223442,0.03471734747290611,1.2487812042236328,2.2527875900268555
305003.40777490364,-0.0618559792637825,0.1009787991642952,1.0061277151107788,1.4139467477798462,0.7608281970024109,0.12297265976667404,0.8670529127120972,2.772019863128662
305003.41177490365,-0.06265105307102203,0.02379961870610714,0.9688695669174194,1.8439970016479492,1.60037362575531,0.30253830552101135,0.22735577821731567,2.7083096504211426
305003.41577490367,-0.07094281166791916,0.02118592895567417,1.0931077003479004,2.1265275478363037,1.822899341583252,0.2675724923610687,0.2110573798418045,3.339970588684082
305003.4197749037,-0.01414194330573082,-0.08436545729637146,0.11419275403022766,0.7579684257507324,1.4000728130340576,1.6736501455307007,1.2824952602386475,0.33524563908576965
305003.42377490364,-0.011681165546178818,-0.1511436104774475,0.06582866609096527,0.8802001476287842,1.889162302017212,2.7671890258789062,2.721107006072998,1.5360939502716064
305003.42777490366,-0.013115772977471352,-0.17619015276432037,0.07046114653348923,1.022759199142456,2.187441825866699,3.1945934295654297,3.085763454437256,1.7121349573135376
305003.43177490367,0.025196578353643417,-0.044145919382572174,-0.1790161430835724,-0.12134616822004318,0.2850743532180786,0.7722581624984741,1.2309693098068237,1.9826699495315552
305003.4357749036,0.06468230485916138,0.0023226861376315355,-0.1542431265115738,-0.17923136055469513,0.014802822843194008,0.42470642924308777,0.8411199450492859,1.3109817504882812
305003.43977490364,0.1052684560418129,0.06561806052923203,-0.0704074576497078,-0.20492824912071228,-0.29675567150115967,-0.06526295840740204,0.24067005515098572,0.08133073896169662
305003.44377490366,0.12054034322500229,0.07289265841245651,-0.09039589762687683,-0.23930294811725616,-0.38078173995018005,-0.14475835859775543,0.1332409381866455,0.05616741627454758
305003.4477749037,0.10674133151769638,0.20098166167736053,0.2930327355861664,0.3622208833694458,0.47762471437454224,0.6048157215118408,0.5373061299324036,0.8650497794151306
305003.45177490363,0.18362446129322052,0.4159793555736542,0.6670258641242981,0.9130321741104126,1.3765097856521606,1.5316888093948364,1.6561174392700195,2.325288772583008
305003.45577490365,0.2512514293193817,0.6225442886352539,1.030563473701477,1.4475828409194946,2.298109769821167,2.3914380073547363,2.6723291873931885,3.6875696182250977
305003.45977490366,0.286273717880249,0.7121146321296692,1.1852139234542847,1.6638859510421753,2.6478943824768066,2.7822537422180176,3.12130069732666,4.3466010093688965
305003.4637749037,0.19331178069114685,0.5057258009910583,0.8647192716598511,1.2046704292297363,1.2802414894104004,1.1540486812591553,0.7334386706352234,0.047902122139930725
305003.46777490363,0.3010497987270355,0.7569431066513062,1.1834540367126465,1.3357787132263184,1.1027231216430664,0.6282745003700256,0.30853143334388733,0.11286495625972748
305003.47177490365,0.3879149258136749,0.9499604105949402,1.3740592002868652,1.2253079414367676,0.6772642135620117,-0.1314699649810791,-0.1554676741361618,0.5446988344192505
305003.47577490367,0.4410165846347809,1.0798187255859375,1.5644123554229736,1.3943403959274292,0.7371001839637756,-0.21854595839977264,-0.31494686007499695,0.4713176488876343
305003.4797749037,0.25242847204208374,0.570061206817627,0.48288288712501526,0.09213528037071228,-0.16186626255512238,0.3128584623336792,1.5006390810012817,2.41715931892395
305003.48377490364,0.377147912979126,0.7400605082511902,0.44000816345214844,-0.00920882262289524,0.17407962679862976,1.327608585357666,2.2744393348693848,2.2548115253448486
305003.48777490365,0.4719676077365875,0.8231383562088013,0.3025796413421631,-0.13091151416301727,0.6790866851806641,2.386462450027466,2.6842381954193115,1.4155415296554565
305003.49177490367,0.5358327031135559,0.9355214834213257,0.33378320932388306,-0.1572505086660385,0.7592868804931641,2.7733476161956787,3.1444127559661865,1.585586667060852
305003.4957749037,0.29665106534957886,0.3232329189777374,-0.12091941386461258,0.1867017149925232,1.3781393766403198,1.3469421863555908,-0.25268256664276123,-0.05344981700181961
305003.49977490364,0.4157956838607788,0.3338194489479065,-0.16280849277973175,0.7850461602210999,1.8204175233840942,0.8660803437232971,0.3522660732269287,1.4406574964523315
305003.50377490366,0.494099885225296,0.2861514389514923,-0.1636279672384262,1.4395173788070679,1.9999569654464722,0.12260749936103821,1.4283602237701416,3.071657419204712
305003.5077749037,0.5613700151443481,0.32040664553642273,-0.19378717243671417,1.6440362930297852,2.282284736633301,0.05775389075279236,1.4859626293182373,3.57055926322937
305003.5117749037,0.2809752821922302,-0.004924265667796135,0.17633241415023804,1.0847631692886353,0.22556404769420624,-0.023117560893297195,3.545886278152466,0.7227690815925598
305003.51577490364,0.38253065943717957,-0.07057054340839386,0.5200347304344177,1.347383737564087,-0.012564883567392826,0.8668827414512634,3.379143476486206,0.554076075553894
305003.51977490366,0.4461900591850281,-0.13312922418117523,0.8798856139183044,1.399375081062317,-0.2785736918449402,1.8537689447402954,2.3289361000061035,0.39724889397621155
305003.5237749037,0.5060018301010132,-0.1597917526960373,1.006704568862915,1.6108858585357666,-0.31901589035987854,2.158585548400879,2.5306472778320312,0.39482325315475464
305003.5277749037,0.23425929248332977,-0.10981132090091705,0.8160350322723389,0.1887347251176834,0.4786912202835083,1.3930858373641968,-0.281904399394989,2.4679465293884277
305003.53177490365,0.30495181679725647,-0.08617822080850601,1.1520260572433472,0.019229406490921974,1.3173624277114868,1.0837410688400269,0.5425857305526733,3.208364725112915
305003.53577490366,0.3396947681903839,-0.02998596802353859,1.3765925168991089,-0.18015269935131073,2.197329044342041,0.40251103043556213,1.7074984312057495,3.1973764896392822
305003.5397749037,0.3856683373451233,-0.03645718842744827,1.5688283443450928,-0.2217792272567749,2.4991023540496826,0.4528680443763733,1.9275884628295898,3.930473566055298
305003.5437749037,0.1554785519838333,0.11475441604852676,0.6186736226081848,0.0643199160695076,1.282692790031433,-0.20654067397117615,1.981733798980713,-0.40219342708587646
305003.54777490365,0.18909305334091187,0.2926012873649597,0.5903763771057129,0.576384961605072,1.0149719715118408,0.7993112802505493,1.490746259689331,0.7423387765884399
305003.55177490367,0.19755207002162933,0.4733247756958008,0.4357736110687256,1.1704515218734741,0.46653106808662415,2.0292580127716064,0.507145881652832,2.1362314224243164
305003.5557749037,0.22353962063789368,0.5414801836013794,0.4909927248954773,1.3355005979537964,0.5175212621688843,2.3225810527801514,0.5227707624435425,2.529942274093628
305003.5597749037,0.0720977708697319,0.43466275930404663,-0.054122768342494965,1.1666247844696045,-0.06802421063184738,1.5989317893981934,0.18728111684322357,1.5034009218215942
305003.56377490365,0.07043033093214035,0.6939743161201477,-0.15210528671741486,1.4653890132904053,0.2955746352672577,1.4242832660675049,1.3056646585464478,0.9169551730155945
305003.56777490367,0.054744187742471695,0.9034585952758789,-0.23571570217609406,1.5684382915496826,0.7803482413291931,0.9264718890190125,2.482980728149414,0.12441572546958923
305003.5717749037,0.06137963756918907,1.0319997072219849,-0.2706838548183441,1.7982510328292847,0.8635551333427429,1.0156346559524536,2.9135162830352783,0.030051201581954956
305003.5757749037,-0.011911395937204361,0.6527205109596252,0.15297451615333557,0.2617127597332001,1.4410659074783325,0.14676716923713684,0.9442353844642639,2.0861425399780273
305003.57977490366,-0.031732384115457535,0.9677637815475464,0.3662189543247223,0.18817919492721558,2.259138584136963,0.5227705836296082,0.5190073251724243,3.6568219661712646
305003.5837749037,-0.0364142544567585,1.114052414894104,0.41371870040893555,0.22090432047843933,2.6127843856811523,0.5343802571296692,0.6186366081237793,4.32078218460083
305003.5877749037,-0.04312385618686676,0.4590088129043579,0.6041899919509888,-0.25277698040008545,0.7348011136054993,1.4999685287475586,0.11933111399412155,0.2763461768627167
305003.59177490365,-0.06601707637310028,0.547139048576355,1.0019197463989258,-0.007464405614882708,0.517625093460083,1.9431755542755127,1.3273695707321167,0.12082117795944214
305003.59577490366,-0.08249744772911072,0.5580527782440186,1.3220760822296143,0.33406752347946167,0.17125627398490906,2.0443484783172607,2.7818615436553955,0.21963675320148468
305003.5997749037,-0.09468318521976471,0.6336879730224609,1.5143461227416992,0.37319666147232056,0.16700643301010132,2.3584442138671875,3.168879747390747,0.10775711387395859
305003.6037749037,-0.04579268768429756,0.15311142802238464,0.8047667741775513,0.8737736940383911,0.05096232891082764,-0.026474473997950554,1.3718253374099731,1.9113138914108276
305003.60777490365,-0.06203600764274597,0.09627248346805573,0.9542877078056335,1.403555154800415,0.6824758648872375,0.006443167105317116,0.6675676107406616,1.8733452558517456
305003.61177490366,-0.07033722847700119,0.0003522140032146126,0.9602614641189575,1.8013396263122559,1.4157698154449463,0.1568504273891449,-0.3575344383716583,1.3509777784347534
305003.6157749037,-0.08044247329235077,-0.00453495979309082,1.098669409751892,2.070950984954834,1.6268010139465332,0.09580817073583603,-0.4816477596759796,1.572871208190918
305003.6197749037,-0.014433502219617367,-0.11071591079235077,0.1807730495929718,0.8587191700935364,1.4337973594665527,1.5955703258514404,0.7670422792434692,-0.14641574025154114
305003.62377490365,-0.0018863193690776825,-0.13404078781604767,0.07892467081546783,0.712069034576416,1.5481815338134766,2.1983745098114014,2.0055789947509766,1.1359082460403442
305003.62777490367,0.01697077788412571,-0.13182847201824188,-0.06003379821777344,0.38949090242385864,1.3496114015579224,2.438209056854248,3.1619174480438232,2.5707626342773438
305003.6317749037,0.018617980182170868,-0.15043726563453674,-0.08079350739717484,0.41926106810569763,1.5508135557174683,2.8413991928100586,3.723900079727173,3.077850818634033
305003.6357749037,0.04306873679161072,-0.009392927400767803,-0.12142645567655563,-0.148155078291893,0.03668632358312607,0.05737387388944626,0.5354027152061462,1.0166101455688477
305003.63977490366,0.09246046096086502,0.08080543577671051,-0.017573310062289238,-0.027350233867764473,0.10507844388484955,-0.048940178006887436,0.2529413104057312,0.6067100763320923
305003.64377490367,0.14091075956821442,0.19496141374111176,0.15194828808307648,0.1584504246711731,0.23351101577281952,-0.05055149272084236,0.010079280473291874,0.048396941274404526
305003.6477749037,0.16056416928768158,0.22233927249908447,0.16558758914470673,0.16420906782150269,0.23556599020957947,-0.12049366533756256,-0.14685183763504028,-0.018426530063152313
305003.6517749037,0.12873442471027374,0.28880763053894043,0.4788512587547302,0.7045547962188721,1.0368618965148926,1.3964611291885376,2.9923148155212402,1.8262313604354858
305003.65577490366,0.21432502567768097,0.526665449142456,0.8860674500465393,1.2829352617263794,1.7359015941619873,2.1674959659576416,3.4006855487823486,3.1830663681030273
305003.6597749037,0.28783538937568665,0.7409633994102478,1.253401756286621,1.7764742374420166,2.254761219024658,2.6338326930999756,2.9882283210754395,4.068581581115723
305003.6637749037,0.3278915286064148,0.8489498496055603,1.4368040561676025,2.045038938522339,2.594128131866455,3.052861452102661,3.327667713165283,5.036073684692383
305003.6677749037,0.20825697481632233,0.5470342040061951,0.8581446409225464,0.9046280384063721,0.7352197766304016,0.36670029163360596,-0.4297296404838562,-0.5367732644081116
305003.67177490366,0.3195607662200928,0.8008345365524292,1.051635503768921,0.8719010949134827,0.38297954201698303,0.1660752296447754,-0.0011334349401295185,0.8146027326583862
305003.6757749037,0.4083387851715088,0.9887403845787048,1.0968185663223267,0.6300110816955566,-0.16772130131721497,-0.05211258307099342,0.7689533829689026,2.5932929515838623
305003.6797749037,0.46377241611480713,1.1217045783996582,1.243137240409851,0.7135886549949646,-0.20550864934921265,-0.13951292634010315,0.8418925404548645,2.9398317337036133
305003.6837749037,0.27189767360687256,0.5201317071914673,0.301658570766449,-0.13456571102142334,0.09297411143779755,1.081107258796692,2.1782102584838867,1.5870996713638306
305003.68777490366,0.3933641016483307,0.6489024758338928,0.193858802318573,-0.17100870609283447,0.7080751061439514,1.861954927444458,2.247729539871216,0.7745010852813721
305003.6917749037,0.47939589619636536,0.6882088780403137,0.026743033900856972,-0.12774060666561127,1.4194978475570679,2.418912172317505,1.7830359935760498,-0.45292526483535767
305003.6957749037,0.5449521541595459,0.7785905003547668,0.010925520211458206,-0.16767774522304535,1.6320710182189941,2.800130605697632,2.0466127395629883,-0.5781823396682739
305003.6997749037,0.29087576270103455,0.23600764572620392,-0.13630181550979614,0.5380626916885376,1.3328193426132202,0.5424963235855103,-0.3387647569179535,1.932631015777588
305003.70377490367,0.40892404317855835,0.21530000865459442,-0.09109947085380554,1.1677581071853638,1.4739277362823486,0.1295546591281891,0.5930448770523071,2.8699421882629395
305003.7077749037,0.48689529299736023,0.14760644733905792,0.0014216939453035593,1.7819955348968506,1.3168576955795288,-0.3263845145702362,1.7083795070648193,3.2919461727142334
305003.7117749037,0.5535926222801208,0.1634874790906906,-0.005733372177928686,2.030134916305542,1.4966211318969727,-0.4738014340400696,1.9804445505142212,3.935051202774048
305003.7157749037,0.29582440853118896,-0.06734500080347061,0.4716408848762512,1.1128723621368408,-0.10589126497507095,1.0635850429534912,1.5052403211593628,-0.014853435568511486
305003.7197749037,0.4368024468421936,-0.14142267405986786,0.8467580676078796,1.456194519996643,-0.21893726289272308,2.0778329372406006,1.6422309875488281,0.04367237910628319
305003.7237749037,0.5020868182182312,-0.16713711619377136,0.9716686010360718,1.6901679039001465,-0.2661987543106079,2.3757877349853516,1.9669560194015503,-0.13721467554569244
305003.7277749037,0.23440325260162354,-0.08946198225021362,0.8478737473487854,0.16742433607578278,0.4558388590812683,1.5956933498382568,-0.3896705210208893,2.049701452255249
305003.73177490366,0.30327263474464417,-0.07073977589607239,1.2031675577163696,-0.05923543870449066,1.262271523475647,1.143499732017517,0.43039339780807495,2.2281131744384766
305003.7357749037,0.33774709701538086,-0.026744607836008072,1.4357863664627075,-0.33631110191345215,2.0790891647338867,0.32143524289131165,1.5461968183517456,1.8117163181304932
305003.7397749037,0.3830448389053345,-0.03605901077389717,1.6476013660430908,-0.39535218477249146,2.3891775608062744,0.33971986174583435,1.7802367210388184,2.139241933822632
305003.7437749037,0.1546057164669037,0.11263558268547058,0.591312050819397,0.12446501106023788,1.202859878540039,-0.10952792316675186,1.574473261833191,-0.4661162495613098
305003.74777490366,0.18792663514614105,0.29154571890830994,0.577098548412323,0.5776581764221191,1.0565522909164429,0.8040494322776794,1.1337840557098389,0.9079781174659729
305003.7517749037,0.19635428488254547,0.4756554961204529,0.44217175245285034,1.0798217058181763,0.6531333923339844,1.944556474685669,0.2640324831008911,2.650495767593384
305003.7557749037,0.22231043875217438,0.5438499450683594,0.49685123562812805,1.2396785020828247,0.7068465352058411,2.2186436653137207,0.287586510181427,3.0775797367095947
305003.7597749037,0.07027476280927658,0.4497096538543701,-0.068817138671875,1.2174601554870605,-0.2398795485496521,1.717000961303711,0.15632085502147675,1.4250493049621582
305003.76377490367,0.07142586261034012,0.7244855761528015,-0.12246999144554138,1.5525362491607666,0.1546637862920761,1.3335072994232178,1.4165265560150146,0.9993159174919128
305003.7677749037,0.06029734015464783,0.9495131373405457,-0.14423386752605438,1.6613932847976685,0.6830671429634094,0.5743971467018127,2.8700246810913086,0.4478384256362915
305003.7717749037,0.06729226559400558,1.0806663036346436,-0.17186501622200012,1.9112423658370972,0.7576978802680969,0.6364589333534241,3.2660868167877197,0.35384508967399597
305003.7757749037,0.0037655469495803118,0.5836288332939148,0.03167667239904404,0.30611568689346313,1.2207841873168945,-0.22829312086105347,1.2500437498092651,1.5813840627670288
305003.77977490367,-0.017243249341845512,0.773485004901886,0.33247262239456177,0.052348606288433075,1.7239844799041748,0.4887565076351166,0.6702942252159119,2.3344223499298096
305003.7837749037,-0.04258174076676369,0.8689900636672974,0.6684780120849609,-0.25795304775238037,2.0050411224365234,1.4223421812057495,-0.1045965775847435,2.654398202896118
305003.7877749037,-0.04827547445893288,0.9866971969604492,0.7673211693763733,-0.3268207311630249,2.3220489025115967,1.6352403163909912,-0.2568458616733551,3.1525685787200928
305003.7917749037,-0.055735670030117035,0.5182816386222839,1.0869801044464111,0.010541634634137154,0.3104053735733032,2.238473653793335,1.5587900876998901,-0.49879220128059387
305003.7957749037,-0.062344036996364594,0.5880846381187439,1.2059478759765625,-0.005878923460841179,0.38719961047172546,2.5298197269439697,1.648108720779419,-0.5375347137451172
305003.7997749037,-0.06487996876239777,0.3016393184661865,1.148483157157898,0.8709835410118103,-0.2279960811138153,0.5654274225234985,2.972727060317993,1.8402950763702393
305003.80377490364,-0.07194679230451584,0.3474152982234955,1.2937594652175903,0.9365479946136475,-0.24616970121860504,0.7199012637138367,3.382770538330078,1.9499667882919312
305003.80777490366,-0.04370670020580292,0.06642241775989532,0.7235242128372192,1.0637136697769165,0.42290908098220825,-0.2689390182495117,0.4057410657405853,2.0385091304779053
305003.8117749036,-0.0524185374379158,0.00046658431529067457,0.7580587267875671,1.570088505744934,1.244651198387146,0.30096206068992615,0.16309098899364471,1.0923539400100708
305003.81577490363,-0.051684413105249405,-0.0777721256017685,0.659401535987854,1.8804419040679932,2.053520441055298,1.0883653163909912,0.0003190122079104185,-0.36518579721450806
305003.81977490365,-0.05995485931634903,-0.09601633995771408,0.7431120276451111,2.172147274017334,2.3784332275390625,1.2409985065460205,-0.15661625564098358,-0.5216907858848572
305003.82377490366,0.004049602895975113,-0.11468750983476639,-0.012688074260950089,0.39702901244163513,1.0574852228164673,1.5819345712661743,2.3910651206970215,1.5513466596603394
305003.8277749036,0.01978900656104088,-0.16464677453041077,-0.09907503426074982,0.3676333427429199,1.293823480606079,2.150514841079712,4.424280643463135,2.982067108154297
305003.83177490364,0.022128939628601074,-0.19440403580665588,-0.11899176239967346,0.42346468567848206,1.5263671875,2.5014395713806152,5.019169330596924,3.428524971008301
305003.83577490365,0.03817158192396164,-0.03748774901032448,-0.15125171840190887,-0.30653709173202515,-0.3464163839817047,0.04111560061573982,0.888343870639801,0.7513699531555176
305003.8397749036,0.08151691406965256,0.03508809208869934,-0.05918854847550392,-0.19366581737995148,-0.3640054762363434,0.07206452637910843,0.6082379817962646,0.44945570826530457
305003.8437749036,0.12928524613380432,0.17659735679626465,0.18749314546585083,0.1738409698009491,0.04414963722229004,0.37395232915878296,0.4574088156223297,0.3119036853313446
305003.84777490364,0.1757999211549759,0.3326382040977478,0.4767954647541046,0.6107142567634583,0.6700685024261475,0.9078762531280518,0.8080130815505981,0.7428734302520752
305003.85177490365,0.19656109809875488,0.3856235444545746,0.5575302839279175,0.7192023396492004,0.816687822341919,1.0086647272109985,0.7910126447677612,0.6808227300643921
305003.85577490367,0.14944544434547424,0.37278833985328674,0.6453172564506531,0.9355664849281311,1.2160325050354004,1.6574262380599976,1.7323180437088013,1.9639214277267456
305003.8597749036,0.2432233989238739,0.6353796720504761,1.0683597326278687,1.4593836069107056,1.7302746772766113,2.008402109146118,1.7960474491119385,1.633008360862732
305003.86377490364,0.32227006554603577,0.8625783324241638,1.415510654449463,1.8435977697372437,2.0142483711242676,1.939470887184143,1.4371337890625,0.740300178527832
305003.86777490366,0.36711618304252625,0.9855402112007141,1.6089719533920288,2.119147300720215,2.3323616981506348,2.256234884262085,1.661420226097107,0.8458212018013
305003.8717749037,0.23206213116645813,0.5901187658309937,0.800479531288147,0.6700693368911743,0.244564026594162,-0.30145999789237976,0.022810721769928932,0.20974941551685333
305003.87577490363,0.3446986973285675,0.8221292495727539,0.9211443662643433,0.46367964148521423,-0.014461527578532696,-0.04163975268602371,0.9422956705093384,1.7210445404052734
305003.87977490365,0.42812734842300415,0.9652630090713501,0.8837155103683472,0.09481112658977509,-0.28826040029525757,0.4608518183231354,2.0419039726257324,3.206451654434204
305003.88377490366,0.48683929443359375,1.0973925590515137,1.0029340982437134,0.09740988910198212,-0.3653901517391205,0.5026613473892212,2.3393807411193848,3.8133254051208496
305003.8877749037,0.28359854221343994,0.4810347855091095,0.09694681316614151,-0.10470966249704361,0.4223804175853729,1.6186280250549316,1.7868024110794067,0.40066611766815186
305003.89177490363,0.40646231174468994,0.5589728951454163,0.0034972233697772026,0.07862035185098648,1.2669941186904907,1.9793241024017334,1.1718488931655884,0.16079123318195343
305003.89577490365,0.4925450086593628,0.5561041831970215,-0.1073908656835556,0.3505997657775879,2.1206963062286377,2.0233521461486816,0.1298685222864151,0.11887018382549286
305003.89977490366,0.5584668517112732,0.6276678442955017,-0.1284812092781067,0.3826169967651367,2.4480397701263428,2.344212770462036,0.07612267881631851,-0.0728631243109703
305003.9037749037,0.3214193880558014,0.11973010003566742,-0.03472619503736496,1.084246277809143,1.0371590852737427,-0.22541114687919617,0.6499711275100708,2.3657119274139404
305003.90777490364,0.4762050211429596,0.11769691854715347,0.020428454503417015,1.8004357814788818,1.2482730150222778,-0.42843925952911377,1.779649019241333,3.334308385848999
305003.91177490365,0.5495813488960266,0.13665173947811127,0.005331461783498526,2.0734214782714844,1.4690337181091309,-0.5579472780227661,2.0404610633850098,3.9859976768493652
305003.91577490367,0.2680181562900543,-0.050225630402565,0.3668139576911926,1.0584598779678345,-0.14549113810062408,0.8027940988540649,1.7848519086837769,-0.0955747663974762
305003.9197749036,0.3634425699710846,-0.09856468439102173,0.7526347637176514,1.1110612154006958,-0.09705347567796707,1.745416522026062,1.3720691204071045,0.6796481013298035
305003.92377490364,0.42004460096359253,-0.1514214426279068,1.1105250120162964,0.9374470710754395,0.048862274736166,2.563687324523926,0.5537437796592712,1.8111252784729004
305003.92777490366,0.4775482714176178,-0.17048847675323486,1.2798482179641724,1.0622131824493408,0.052510473877191544,2.99172043800354,0.5835779309272766,1.9963226318359375
305003.93177490367,0.21681858599185944,-0.06572984158992767,0.9039387702941895,-0.11137357354164124,0.9256870150566101,0.8577020764350891,0.032961126416921616,1.9853367805480957
305003.9357749036,0.2769230306148529,0.0016630383906885982,1.1661431789398193,-0.20545357465744019,1.6729884147644043,0.400131493806839,1.4077028036117554,1.4169656038284302
305003.93977490364,0.30333343148231506,0.09031978249549866,1.2844059467315674,-0.2536858320236206,2.315845012664795,-0.193585604429245,2.8742403984069824,0.13616810739040375
305003.94377490366,0.34393155574798584,0.10518687963485718,1.4734057188034058,-0.3244837820529938,2.6737067699432373,-0.31262636184692383,3.377810478210449,0.24010556936264038
305003.9477749037,0.13406269252300262,0.20863229036331177,0.44140076637268066,0.3663814067840576,0.7831138968467712,0.5744196176528931,1.2565279006958008,0.6688045263290405
305003.95177490363,0.15840433537960052,0.4171394109725952,0.3538822829723358,0.9578654170036316,0.5257061123847961,1.5610699653625488,0.8088648319244385,2.0924484729766846
305003.95577490365,0.1603824347257614,0.615898847579956,0.17477571964263916,1.5479313135147095,0.10613134503364563,2.517089605331421,0.17621253430843353,3.436998128890991
305003.95977490366,0.18151843547821045,0.7035717964172363,0.1894928216934204,1.7808414697647095,0.09606169909238815,2.9286701679229736,0.11420587450265884,4.042377471923828
305003.9637749037,0.05265448987483978,0.48736611008644104,-0.10830192267894745,1.1366245746612549,-0.037457745522260666,0.9442848563194275,0.968012273311615,0.1973293572664261
305003.96777490363,0.04640280082821846,0.7374247908592224,-0.10874645411968231,1.2841566801071167,0.6280678510665894,0.6340267062187195,2.8876161575317383,0.3194694519042969
305003.97177490365,0.029285220429301262,0.9265720248222351,-0.07363290339708328,1.1909197568893433,1.3783050775527954,0.15514709055423737,4.743070602416992,0.6950597167015076
305003.97577490367,0.03233836963772774,1.0575530529022217,-0.1030648872256279,1.349603533744812,1.6057661771774292,0.116030752658844,5.672403335571289,0.6319489479064941
305003.9797749037,-0.010625654831528664,0.5422215461730957,0.22774510085582733,0.0328705757856369,1.4348199367523193,0.31419602036476135,0.6177038550376892,2.0060245990753174
305003.98377490364,-0.03749219700694084,0.7145894169807434,0.6184811592102051,-0.12456156313419342,1.5561320781707764,1.3492982387542725,0.4371736943721771,1.8615576028823853
305003.98777490365,-0.0661877989768982,0.8022923469543457,1.0244159698486328,-0.2404685765504837,1.3772956132888794,2.4580183029174805,0.367740660905838,1.091179609298706
305003.99177490367,-0.07669800519943237,0.91194748878479,1.1716989278793335,-0.3164224922657013,1.573276162147522,2.828995943069458,0.3521181046962738,1.272443175315857
305003.9957749037,-0.04261992871761322,0.3262433409690857,0.8471782803535461,0.19019167125225067,-0.26988375186920166,1.3639637231826782,1.9248356819152832,0.3665161728858948
305003.99977490364,-0.059745386242866516,0.3372204005718231,1.1318035125732422,0.7439197897911072,-0.2097768485546112,1.0333925485610962,2.4146063327789307,1.775821566581726
305004.00377490366,-0.07049504667520523,0.2898736596107483,1.291758418083191,1.3204251527786255,-0.020860731601715088,0.4605594575405121,2.3834431171417236,3.3688764572143555
305004.0077749037,-0.08035271614789963,0.32468685507774353,1.469606637954712,1.5317027568817139,-0.029371952638030052,0.4652884602546692,2.7681996822357178,3.8442018032073975
305004.0117749037,-0.03727755323052406,0.01851833425462246,0.5447418689727783,1.2077711820602417,0.9921966195106506,0.043276116251945496,0.0597027949988842,0.7487219572067261
305004.01577490364,-0.041055984795093536,-0.03640347719192505,0.5022433400154114,1.4340019226074219,1.7370699644088745,1.0488696098327637,0.5748667120933533,0.406828373670578
305004.01977490366,-0.03774147108197212,-0.1021994948387146,0.34444746375083923,1.423007607460022,2.3629684448242188,2.203817367553711,1.266569972038269,0.16549459099769592
305004.0237749037,-0.04347682371735573,-0.11708759516477585,0.38724496960639954,1.6068922281265259,2.685570240020752,2.5234827995300293,1.4112038612365723,-0.015445485711097717
305004.0277749037,0.01968931406736374,-0.08816258609294891,-0.12385868281126022,0.09199362993240356,0.5654043555259705,1.2102266550064087,1.8704371452331543,2.0407793521881104
305004.03177490365,0.042467422783374786,-0.12947091460227966,-0.21081870794296265,-0.04023052006959915,0.48509812355041504,1.3200095891952515,2.3417210578918457,3.125878095626831
305004.03577490366,0.048835285007953644,-0.15340656042099,-0.23911447823047638,-0.036374107003211975,0.5675364136695862,1.5486161708831787,2.7199931144714355,3.767883062362671
305004.0397749037,0.06715984642505646,0.06053344905376434,-0.02155575528740883,-0.22509653866291046,-0.22042633593082428,-0.4268570840358734,-0.3509121537208557,-0.018773548305034637
305004.04377490364,0.12512437999248505,0.19119535386562347,0.18803182244300842,0.11251059919595718,0.14431414008140564,0.0574500672519207,0.050338003784418106,0.458080530166626
305004.04777490365,0.178865447640419,0.3325457274913788,0.4524826109409332,0.5639485716819763,0.6626681089401245,0.7807305455207825,0.7435758113861084,1.2484809160232544
305004.05177490367,0.20391203463077545,0.3785959482192993,0.5129709839820862,0.6466242671012878,0.7440363764762878,0.877541184425354,0.7914726138114929,1.3460047245025635
305004.0557749037,0.14925026893615723,0.38755619525909424,0.6695674061775208,0.9865832924842834,1.3718026876449585,1.6443051099777222,1.9401122331619263,2.3365683555603027
305004.05977490364,0.24128490686416626,0.6332585215568542,1.0907827615737915,1.5530600547790527,1.8102800846099854,1.8958745002746582,1.9085240364074707,2.042768716812134
305004.06377490365,0.318384051322937,0.8322082161903381,1.4165574312210083,1.9588263034820557,2.0074687004089355,1.7862600088119507,1.351179599761963,1.10325026512146
305004.06777490367,0.36243781447410583,0.952770471572876,1.63558828830719,2.2668190002441406,2.301229476928711,2.079359531402588,1.5677413940429688,1.340959906578064
305004.0717749037,0.22420918941497803,0.5671188235282898,0.7891036868095398,0.6595906615257263,0.1947917938232422,-0.24317418038845062,-0.14890651404857635,0.4243648648262024
305004.07577490364,0.3401259779930115,0.8066489696502686,0.8965681195259094,0.48602646589279175,-0.08647511154413223,-0.03193752095103264,0.9086653590202332,1.7682713270187378
305004.07977490366,0.43053674697875977,0.9729690551757812,0.855590283870697,0.16321994364261627,-0.38382604718208313,0.4253729581832886,2.2235054969787598,3.0441393852233887
305004.0837749037,0.4893312454223633,1.108323335647583,0.9663012027740479,0.1716218888759613,-0.4619941711425781,0.4472233057022095,2.538020133972168,3.624713659286499
305004.0877749037,0.2799954414367676,0.46686431765556335,0.13999614119529724,-0.15323090553283691,0.47794902324676514,1.584168553352356,1.673633098602295,0.4345336854457855
305004.09177490365,0.4022458791732788,0.556164562702179,-0.00923459604382515,0.0326203852891922,1.318014144897461,2.087522506713867,1.324677586555481,0.3037934899330139
305004.09577490366,0.48732078075408936,0.5623869895935059,-0.20667356252670288,0.3119857609272003,2.17443585395813,2.1810009479522705,0.6378288865089417,0.35749053955078125
305004.0997749037,0.5555384755134583,0.6362563371658325,-0.24227724969387054,0.33377474546432495,2.4940669536590576,2.5364387035369873,0.6239257454872131,0.23165224492549896
305004.1037749037,0.286236047744751,0.15635603666305542,-0.07566475123167038,0.8394367098808289,1.2056894302368164,-0.1538991928100586,0.3463614284992218,2.205845832824707
305004.10777490365,0.3995649218559265,0.11809562146663666,0.07313494384288788,1.4115060567855835,0.9963241219520569,-0.06598512828350067,2.6393420696258545,2.229348659515381
305004.11177490366,0.474250465631485,0.044177353382110596,0.2788369953632355,1.8800615072250366,0.5276423096656799,0.19821999967098236,5.212156772613525,1.7647689580917358
305004.1157749037,0.5398712158203125,0.04723840951919556,0.3160932660102844,2.1539125442504883,0.5798482894897461,0.18541179597377777,6.072450160980225,2.0464112758636475
305004.1197749037,0.26460620760917664,-0.1078738123178482,0.5333449840545654,0.8095720410346985,-0.045839887112379074,1.504045844078064,1.5772639513015747,-0.10189816355705261
305004.12377490365,0.35304147005081177,-0.1361560970544815,0.9891653060913086,0.6821611523628235,0.3254314661026001,2.186825752258301,0.9118761420249939,1.491553783416748
305004.12777490367,0.40278419852256775,-0.14231209456920624,1.4015904664993286,0.38092440366744995,0.8131048679351807,2.518800973892212,0.194488987326622,3.283714771270752
305004.1317749037,0.4573183059692383,-0.16230042278766632,1.6060481071472168,0.4139733612537384,0.9043372869491577,2.9095520973205566,0.04824821650981903,3.83172345161438
305004.1357749037,0.19733653962612152,-0.006029070354998112,0.8307840824127197,-0.23893725872039795,1.2542353868484497,0.062482960522174835,1.274050235748291,1.0678653717041016
305004.13977490366,0.24792778491973877,0.08093439042568207,1.0208977460861206,-0.09194248169660568,1.7623120546340942,-0.0983986034989357,2.2264137268066406,0.7031829357147217
305004.14377490367,0.267819344997406,0.18944776058197021,1.0541280508041382,0.14358024299144745,2.011775493621826,-0.13209788501262665,2.866335153579712,0.32177576422691345
305004.1477749037,0.3031712770462036,0.21554704010486603,1.1932555437088013,0.16304919123649597,2.329707622528076,-0.24493087828159332,3.368835926055908,0.1833295375108719
305004.1517749037,0.11261794716119766,0.2903047800064087,0.24771371483802795,0.7136709094047546,0.24627676606178284,1.174858808517456,0.0672842338681221,1.799683690071106
305004.15577490366,0.12947265803813934,0.5307581424713135,0.10667425394058228,1.2861343622207642,-0.028497083112597466,1.9422043561935425,0.1772930771112442,2.324796199798584
305004.1597749037,0.12760524451732635,0.7491813898086548,-0.10232354700565338,1.7809432744979858,-0.35707351565361023,2.5513036251068115,0.4722329378128052,2.3254261016845703
305004.1637749037,0.14410117268562317,0.8571405410766602,-0.12150351703166962,2.031719923019409,-0.43398207426071167,2.939014196395874,0.48109865188598633,2.758866786956787
305004.1677749037,0.028098123148083687,0.5551047921180725,-0.1256096214056015,1.0013927221298218,0.44912657141685486,0.2438175529241562,1.6185985803604126,-0.3803950846195221
305004.17177490366,0.019706247374415398,0.8082882761955261,-0.042396895587444305,0.9126809239387512,1.204140305519104,0.039590101689100266,1.9598488807678223,0.8230003714561462
305004.1757749037,0.005207617301493883,0.9874792098999023,0.11022646725177765,0.6261214017868042,1.961513876914978,-0.12109309434890747,1.9301707744598389,2.530130624771118
305004.1797749037,0.006004737224429846,1.1219406127929688,0.12466123700141907,0.7007839679718018,2.254863977432251,-0.16210883855819702,2.260375499725342,2.8490185737609863
305004.1837749037,-0.027594998478889465,0.5203218460083008,0.4241480529308319,-0.1260164976119995,1.2761225700378418,0.9904913306236267,-0.03823527693748474,2.2170732021331787
305004.18777490366,-0.05067089945077896,0.6481743454933167,0.8378626704216003,-0.15963652729988098,1.1179026365280151,1.9412946701049805,0.6024903059005737,1.2832322120666504
305004.1917749037,-0.07378353178501129,0.6939258575439453,1.2194359302520752,-0.12282636761665344,0.6924042701721191,2.760352849960327,1.5084903240203857,-0.24254687130451202
305004.1957749037,-0.08288676291704178,0.7875123023986816,1.4016330242156982,-0.1645803600549698,0.7576228976249695,3.2037150859832764,1.6485294103622437,-0.44639167189598083
305004.1997749037,-0.049695368856191635,0.23729190230369568,0.8554812073707581,0.5755366683006287,-0.33964407444000244,0.5928744673728943,1.881819248199463,1.3785581588745117
305004.20377490367,-0.06756825000047684,0.20936809480190277,1.1117850542068481,1.157131552696228,0.04339619725942612,0.26586392521858215,1.5768696069717407,2.4625251293182373
305004.2077749037,-0.07962081581354141,0.1315503865480423,1.215753197669983,1.6705108880996704,0.602887749671936,-0.16564732789993286,0.7649385333061218,3.1476852893829346
305004.2117749037,-0.09112604707479477,0.1478191763162613,1.3874887228012085,1.9382866621017456,0.6745539307594299,-0.24880430102348328,0.8806425333023071,3.797882080078125
305004.2157749037,-0.024934176355600357,-0.044201239943504333,0.36807936429977417,1.1333246231079102,1.2944837808609009,0.8413695693016052,-0.1712539792060852,-0.20293927192687988
305004.2197749037,-0.01940865069627762,-0.10304879397153854,0.26964491605758667,1.1448938846588135,1.8319244384765625,1.76522696018219,1.0162843465805054,0.37409859895706177
305004.2237749037,-0.008032883517444134,-0.154208242893219,0.09790782630443573,0.9412828087806702,2.127952814102173,2.525588274002075,2.433018207550049,1.3640719652175903
305004.2277749037,-0.008218656294047832,-0.17281627655029297,0.09838666021823883,1.0632960796356201,2.473609685897827,2.962130308151245,2.834458827972412,1.4891726970672607
305004.2317749037,0.03782414272427559,-0.052387699484825134,-0.16213296353816986,-0.15278483927249908,0.04771938547492027,0.6389610767364502,1.292635202407837,1.8125343322753906
305004.2357749037,0.07403493672609329,-0.041454099118709564,-0.22328875958919525,-0.24017325043678284,-0.27171725034713745,0.5809288620948792,1.1754454374313354,1.8992317914962769
305004.2397749037,0.0843057706952095,-0.048548974096775055,-0.25415071845054626,-0.3093997538089752,-0.3172186613082886,0.6614607572555542,1.3782906532287598,2.2628543376922607
305004.2437749037,0.08634962141513824,0.12123794853687286,0.12289521843194962,0.015183447860181332,0.017379125580191612,0.13960856199264526,-0.10533005744218826,-0.5177918672561646
305004.24777490366,0.15359511971473694,0.29445889592170715,0.42978549003601074,0.5426537394523621,0.7319441437721252,0.9899845719337463,1.9785300493240356,0.7778234481811523
305004.2517749037,0.21443693339824677,0.46840640902519226,0.7574752569198608,1.14448082447052,1.572679877281189,1.9823815822601318,4.502797603607178,2.3181138038635254
305004.2557749037,0.24432194232940674,0.5362052321434021,0.8693790435791016,1.3121734857559204,1.7948834896087646,2.257079601287842,5.161188125610352,2.721640110015869
305004.2597749037,0.17097416520118713,0.44579052925109863,0.787858247756958,1.0658682584762573,1.3691859245300293,1.7195360660552979,2.575866222381592,1.4523088932037354
305004.26377490367,0.27114447951316833,0.7102532386779785,1.146353006362915,1.3878428936004639,1.4743129014968872,1.4850754737854004,1.5870863199234009,0.7672500610351562
305004.2677749037,0.3533248007297516,0.9229879975318909,1.3874071836471558,1.5083187818527222,1.2758427858352661,0.8419735431671143,0.22065716981887817,-0.08800285309553146
305004.2717749037,0.402464896440506,1.0530824661254883,1.576221227645874,1.7255381345748901,1.4556713104248047,0.9320347309112549,0.08039340376853943,-0.2922307848930359
305004.2757749037,0.24614113569259644,0.5892440676689148,0.654676616191864,0.33851760625839233,-0.12098245322704315,-0.28495070338249207,0.5079334378242493,1.5658469200134277
305004.27977490367,0.36312174797058105,0.7784491777420044,0.6670404076576233,0.07051588594913483,-0.12122608721256256,0.5321422815322876,1.7223446369171143,2.369548797607422
305004.2837749037,0.450275182723999,0.8781685829162598,0.5540024042129517,-0.2826170027256012,-0.013033975847065449,1.5134506225585938,2.9512970447540283,2.7471399307250977
305004.2877749037,0.5113720297813416,1.0001155138015747,0.6239199042320251,-0.3476065993309021,-0.04497762769460678,1.7410918474197388,3.42399263381958,3.2888011932373047
305004.2917749037,0.284415066242218,0.3949771821498871,-0.03968068212270737,-0.05376225337386131,1.0127382278442383,1.7523977756500244,0.8111820220947266,-0.0907827615737915
305004.2957749037,0.40579044818878174,0.4434264302253723,-0.14349503815174103,0.36218366026878357,1.7707308530807495,1.668407678604126,0.2660713493824005,0.898086667060852
305004.2997749037,0.49108031392097473,0.41943472623825073,-0.2267913967370987,0.8802924156188965,2.358459711074829,1.1599092483520508,-0.361563503742218,2.2198877334594727
305004.3037749037,0.5582836270332336,0.47377511858940125,-0.2651405930519104,1.0032627582550049,2.7239372730255127,1.3120442628860474,-0.5387810468673706,2.472600221633911
305004.3077749037,0.31642237305641174,0.04537093639373779,0.07397836446762085,1.1448659896850586,0.6063504219055176,0.06345975399017334,1.5660909414291382,1.898476243019104
305004.3117749037,0.46931368112564087,0.012707121670246124,0.2538226842880249,1.7325564622879028,0.46864280104637146,0.3356061279773712,2.7190468311309814,2.32519268989563
305004.3157749037,0.5412909388542175,0.01662973128259182,0.28342998027801514,2.006166696548462,0.5497857928276062,0.36820682883262634,3.187957525253296,2.929950714111328
305004.3197749037,0.2621898055076599,-0.06535150110721588,0.5519893169403076,0.8500721454620361,-0.072430819272995,1.3751046657562256,0.7664922475814819,-0.4633677005767822
305004.32377490366,0.34931227564811707,-0.10846071690320969,0.9754714965820312,0.6730120778083801,0.29469743371009827,1.9881514310836792,0.4092559814453125,0.9913606643676758
305004.3277749037,0.3983181416988373,-0.14792969822883606,1.353918433189392,0.3082679808139801,0.785132646560669,2.3105833530426025,-0.0041611152701079845,2.6342098712921143
305004.3317749037,0.45216941833496094,-0.1653645783662796,1.537726640701294,0.3365922272205353,0.8718873858451843,2.6975324153900146,-0.10080929845571518,3.072523355484009
305004.3357749037,0.1958751231431961,-0.01410544291138649,0.8157605528831482,-0.13632996380329132,1.20106840133667,0.10690034180879593,1.0993037223815918,1.0753179788589478
305004.33977490367,0.2480575442314148,0.08284097909927368,1.0038543939590454,-0.009216340258717537,1.7022745609283447,0.07984786480665207,2.155402660369873,0.6999070048332214
305004.3437749037,0.2697109878063202,0.19877900183200836,1.0426263809204102,0.18467755615711212,1.979988932609558,0.16467799246311188,3.008532762527466,0.26163437962532043
305004.3477749037,0.3060295581817627,0.22620746493339539,1.187724232673645,0.1898263692855835,2.284714460372925,0.14014333486557007,3.5736420154571533,0.1595352292060852
305004.3517749037,0.11305316537618637,0.2925472855567932,0.2359640896320343,0.6934908032417297,0.20222918689250946,1.1844048500061035,0.19304215908050537,1.6754300594329834
305004.35577490367,0.12893211841583252,0.5280155539512634,0.1257411241531372,1.3180432319641113,-0.0017655804986134171,2.0219438076019287,0.06764683872461319,2.181926727294922
305004.3597749037,0.12544749677181244,0.7384076118469238,-0.03874976187944412,1.8783411979675293,-0.19497458636760712,2.642549991607666,0.09921455383300781,2.219230890274048
305004.3637749037,0.14186032116413116,0.8445656895637512,-0.04879866540431976,2.1645243167877197,-0.25336694717407227,3.1105544567108154,-0.026334622874855995,2.598680257797241
305004.3677749037,0.0323946587741375,0.5563822388648987,-0.12278031557798386,0.9652966856956482,0.4335203766822815,0.3060389757156372,1.9281474351882935,-0.44229307770729065
305004.3717749037,0.021492881700396538,0.7986688613891602,-0.05888430401682854,0.9363448619842529,1.243263602256775,0.101180799305439,2.2647905349731445,0.582221508026123
305004.3757749037,0.0041755991987884045,0.9624996781349182,0.07166961580514908,0.7050564289093018,2.0283734798431396,-0.07884509861469269,2.0884041786193848,1.9002691507339478
305004.3797749037,0.003483507549390197,1.0993201732635498,0.07802063971757889,0.7871003150939941,2.36110258102417,-0.16214749217033386,2.385017156600952,2.2185816764831543
305004.3837749037,-0.024995818734169006,0.5317826867103577,0.41628649830818176,-0.26174402236938477,1.2506159543991089,1.0347964763641357,-0.5498246550559998,1.8913675546646118
305004.3877749037,-0.05139657482504845,0.6592811942100525,0.8436446785926819,-0.200656458735466,1.0469441413879395,1.9917879104614258,0.9176682829856873,1.299171805381775
