lsl_time,C3,C4,CZ,CP3,CP4,CPZ,FC3,FC4
313277.0333581555,216.24107360839844,-198.48876953125,-206.78013610839844,-339.7248229980469,128.03311157226562,285.847412109375,145.72596740722656,-480.2889099121094
313277.0373581555,215.7209930419922,-199.2461700439453,-207.63845825195312,-340.61212158203125,127.29470825195312,285.0235595703125,145.07298278808594,-481.0862731933594
313277.0413581555,214.0143585205078,-201.3419952392578,-209.7362823486328,-342.7049560546875,125.35525512695312,283.1011047363281,143.05859375,-483.1386413574219
313277.0453581555,212.85179138183594,-202.5315399169922,-210.8863525390625,-343.7980651855469,124.19568634033203,282.0039978027344,141.71067810058594,-484.3262023925781
313277.04935815546,214.71978759765625,-200.20989990234375,-208.60418701171875,-341.45294189453125,126.31298828125,284.1412658691406,143.8144989013672,-482.18389892578125
313277.0533581555,216.0991973876953,-198.68211364746094,-207.07640075683594,-339.9191589355469,127.75733184814453,285.4557189941406,145.38723754882812,-480.6351318359375
313277.0573581555,215.53713989257812,-199.51495361328125,-207.90225219726562,-340.70355224609375,127.00293731689453,284.8007507324219,144.70079040527344,-481.3900451660156
313277.0613581555,213.85498046875,-201.6102752685547,-210.03854370117188,-342.85333251953125,125.17040252685547,283.1675720214844,142.7368621826172,-483.51385498046875
313277.06535815547,213.15603637695312,-202.400146484375,-210.7784423828125,-343.6282043457031,124.37503814697266,282.40966796875,141.92550659179688,-484.30120849609375
313277.0693581555,214.94361877441406,-200.17942810058594,-208.56271362304688,-341.321044921875,126.25603485107422,284.19573974609375,143.9853515625,-482.11346435546875
313277.07335815544,216.53384399414062,-198.38185119628906,-206.80911254882812,-339.5569763183594,128.00914001464844,285.8743896484375,145.74195861816406,-480.3014221191406
313277.07735815545,216.0337371826172,-199.07431030273438,-207.5260467529297,-340.30487060546875,127.5350112915039,285.3667907714844,145.12344360351562,-480.98138427734375
313277.08135815547,214.1837158203125,-201.2850341796875,-209.7242889404297,-342.5780334472656,125.37174224853516,283.15557861328125,143.09207153320312,-483.0931701660156
313277.0853581555,213.2654571533203,-202.15383911132812,-210.60159301757812,-343.4723205566406,124.44049072265625,282.2333068847656,142.04840087890625,-483.9729919433594
313277.08935815544,214.92562866210938,-199.9091339111328,-208.39935302734375,-341.2571105957031,126.39891815185547,284.0513610839844,144.0572967529297,-481.80572509765625
313277.09335815546,216.58230590820312,-198.218994140625,-206.7301788330078,-339.532470703125,128.23545837402344,285.92333984375,145.81039428710938,-480.2214660644531
313277.0973581555,216.14764404296875,-198.97088623046875,-207.44361877441406,-340.29736328125,127.79730224609375,285.5941162109375,145.26234436035156,-480.9209289550781
313277.1013581555,214.2556610107422,-201.45840454101562,-209.80271911621094,-342.721435546875,125.44768524169922,283.24798583984375,143.17649841308594,-483.193115234375
313277.10535815544,213.30043029785156,-202.31471252441406,-210.75596618652344,-343.6806640625,124.47945404052734,282.2747802734375,142.16331481933594,-484.1962890625
313277.10935815546,215.19491577148438,-200.0110626220703,-208.46578979492188,-341.2391052246094,126.690185546875,284.5684509277344,144.28411865234375,-482.1249694824219
313277.1133581555,216.80462646484375,-198.22897338867188,-206.7246856689453,-339.4655456542969,128.40782165527344,286.3160400390625,145.99925231933594,-480.3993225097656
313277.1173581555,215.89434814453125,-199.28514099121094,-207.80181884765625,-340.5566711425781,127.45807647705078,285.30633544921875,145.0110321044922,-481.37005615234375
313277.1213581555,213.82749938964844,-201.75416564941406,-210.21389770507812,-342.97271728515625,125.0295181274414,282.894287109375,142.6829071044922,-483.6777038574219
313277.12535815546,213.0111541748047,-202.56350708007812,-210.97679138183594,-343.60821533203125,124.20467376708984,282.2198181152344,141.70468139648438,-484.4795837402344
313277.1293581555,214.89715576171875,-200.15194702148438,-208.5607147216797,-341.03277587890625,126.3784408569336,284.4205627441406,143.82398986816406,-482.1529235839844
313277.1333581555,216.5648193359375,-198.41433715820312,-206.8256072998047,-339.28118896484375,127.9886474609375,285.96533203125,145.6305389404297,-480.36737060546875
313277.1373581555,215.88485717773438,-199.3915557861328,-207.8258056640625,-340.40478515625,127.1812973022461,285.125,144.86915588378906,-481.3555603027344
313277.14135815547,213.865478515625,-201.7176971435547,-210.1664276123047,-342.8018798828125,124.90411376953125,282.7688903808594,142.59646606445312,-483.548828125
313277.1453581555,212.97119140625,-202.61196899414062,-210.9742889404297,-343.4983215332031,123.95088195800781,281.95501708984375,141.53231811523438,-484.3896484375
313277.1493581555,214.90065002441406,-200.25135803222656,-208.5931854248047,-340.98931884765625,126.15061950683594,284.2996520996094,143.74554443359375,-482.1864013671875
313277.1533581555,216.37696838378906,-198.6791229248047,-207.0604248046875,-339.510498046875,127.66241455078125,285.63958740234375,145.38873291015625,-480.6406555175781
313277.15735815547,215.65853881835938,-199.57540893554688,-208.02264404296875,-340.6076354980469,126.92150115966797,284.7602844238281,144.61585998535156,-481.4869689941406
313277.1613581555,213.7705535888672,-201.71319580078125,-210.1779327392578,-342.8363342285156,124.95457458496094,282.78985595703125,142.49855041503906,-483.517333984375
313277.1653581555,213.01815795898438,-202.47508239746094,-210.86387634277344,-343.5672607421875,124.2321548461914,282.1613464355469,141.63323974609375,-484.2822265625
313277.1693581555,214.91064453125,-200.09799194335938,-208.48028564453125,-341.1302185058594,126.39891815185547,284.36810302734375,143.85646057128906,-481.9985656738281
313277.1733581555,216.57281494140625,-198.16453552246094,-206.7071990966797,-339.4615478515625,128.16250610351562,285.9728088378906,145.74595642089844,-480.1640319824219
313277.1773581555,215.8303985595703,-199.0727996826172,-207.63145446777344,-340.47271728515625,127.22126007080078,284.80224609375,144.95458984375,-480.9074401855469
313277.1813581555,213.9214324951172,-201.36447143554688,-209.900146484375,-342.7519226074219,125.1803970336914,282.82232666015625,142.72386169433594,-483.129638671875
313277.1853581555,213.00315856933594,-202.41363525390625,-210.83090209960938,-343.6282043457031,124.34506225585938,282.1513671875,141.6392364501953,-484.1993103027344
313277.1893581555,214.76475524902344,-199.93112182617188,-208.51075744628906,-341.2815856933594,126.61225128173828,284.4715270996094,143.76803588867188,-482.00054931640625
313277.1933581555,216.365478515625,-198.068603515625,-206.78463745117188,-339.564453125,128.3043975830078,286.0427551269531,145.54811096191406,-480.2044982910156
313277.1973581555,215.81591796875,-199.14175415039062,-207.71939086914062,-340.479736328125,127.33717346191406,284.9901123046875,144.814697265625,-481.11676025390625
313277.2013581555,213.9713897705078,-201.57330322265625,-210.02703857421875,-342.82135009765625,125.00952911376953,282.7554016113281,142.72486877441406,-483.376953125
313277.2053581555,213.18002319335938,-202.3661651611328,-210.77444458007812,-343.6252136230469,124.34356689453125,282.2337951660156,141.8355712890625,-484.23077392578125
313277.2093581555,215.01954650878906,-200.1069793701172,-208.46429443359375,-341.1706848144531,126.53031921386719,284.5739440917969,143.92041015625,-482.0799865722656
313277.2133581555,216.3729705810547,-198.70260620117188,-207.06591796875,-339.6553955078125,127.81029510498047,285.8304138183594,145.43319702148438,-480.6246643066406
313277.2173581555,215.8139190673828,-199.4714813232422,-207.84478759765625,-340.4028015136719,127.04790496826172,285.0660400390625,144.80120849609375,-481.25665283203125
313277.22135815554,213.96240234375,-201.70570373535156,-210.02854919433594,-342.63299560546875,125.02552032470703,283.04315185546875,142.66590881347656,-483.3969421386719
313277.2253581555,213.1310577392578,-202.43861389160156,-210.7804412841797,-343.34442138671875,124.2591323852539,282.3202209472656,141.6737060546875,-484.2048034667969
313277.2293581555,214.90065002441406,-200.07949829101562,-208.4827880859375,-340.9368591308594,126.26103210449219,284.3191223144531,143.72056579589844,-481.9965515136719
313277.2333581555,216.21209716796875,-198.50575256347656,-206.9350128173828,-339.3231506347656,127.67639923095703,285.6870422363281,145.24485778808594,-480.3543701171875
313277.23735815554,215.55062866210938,-199.29513549804688,-207.75985717773438,-340.2414245605469,127.08037567138672,284.9901123046875,144.56239318847656,-481.07879638671875
313277.2413581555,213.92092895507812,-201.30902099609375,-209.80572509765625,-342.4676208496094,125.19638061523438,283.0876159667969,142.73086547851562,-482.95977783203125
313277.2453581555,212.6859130859375,-202.4401092529297,-210.97178649902344,-343.8355407714844,123.98735046386719,281.7261962890625,141.49435424804688,-484.1223449707031
313277.24935815553,214.61038208007812,-199.97409057617188,-208.52725219726562,-341.3245544433594,126.2925033569336,283.93243408203125,143.66661071777344,-481.8486633300781
313277.25335815555,216.28903198242188,-198.32240295410156,-206.78314208984375,-339.46453857421875,128.04310607910156,285.7359924316406,145.4042205810547,-480.1595153808594
313277.2573581555,215.6090850830078,-199.07879638671875,-207.64694213867188,-340.3658142089844,127.25773620605469,284.8831787109375,144.63034057617188,-480.87445068359375
313277.2613581555,213.714599609375,-201.2310791015625,-209.86866760253906,-342.656982421875,125.19438171386719,282.7943420410156,142.4820556640625,-482.9772644042969
313277.26535815554,212.7268829345703,-202.30722045898438,-210.82440185546875,-343.55975341796875,124.17120361328125,281.904052734375,141.35496520996094,-483.9959716796875
313277.26935815555,214.6013946533203,-199.9895782470703,-208.41433715820312,-341.0362854003906,126.26502990722656,283.9823913574219,143.52023315429688,-481.6972961425781
313277.2733581555,216.13766479492188,-198.42982482910156,-206.8325958251953,-339.43707275390625,127.6823959350586,285.3013610839844,145.22586059570312,-480.0860900878906
313277.2773581555,215.6165771484375,-199.27413940429688,-207.63446044921875,-340.2259216308594,127.1328353881836,284.888671875,144.5848846435547,-480.8489685058594
313277.28135815554,213.92193603515625,-201.3909454345703,-209.72128295898438,-342.3712158203125,125.14891815185547,282.894287109375,142.63743591308594,-482.83038330078125
313277.28535815555,213.06361389160156,-202.2672576904297,-210.589599609375,-343.3189697265625,124.14871978759766,281.96551513671875,141.6971893310547,-483.7596435546875
313277.2893581555,214.96510314941406,-199.9021453857422,-208.19151306152344,-340.87890625,126.3604507446289,284.2806701660156,143.93190002441406,-481.52093505859375
313277.2933581555,216.39096069335938,-198.3289031982422,-206.63426208496094,-339.31964111328125,127.8008041381836,285.61260986328125,145.5565948486328,-479.91522216796875
313277.29735815554,215.59658813476562,-199.34059143066406,-207.64344787597656,-340.4222717285156,126.73265838623047,284.3855895996094,144.74974060058594,-480.7001037597656
313277.30135815556,213.60568237304688,-201.70669555664062,-210.01605224609375,-342.9217834472656,124.40151977539062,282.0065002441406,142.5754852294922,-482.98626708984375
313277.3053581555,213.025146484375,-202.35317993164062,-210.67752075195312,-343.5987243652344,123.97286224365234,281.8051452636719,141.7386474609375,-483.77862548828125
313277.30935815553,214.85317993164062,-199.90513610839844,-208.2894287109375,-341.1736755371094,126.29150390625,284.1807556152344,143.88844299316406,-481.51043701171875
313277.31335815554,216.07870483398438,-198.42982482910156,-206.91903686523438,-339.8487243652344,127.65191650390625,285.46173095703125,145.3192901611328,-480.10107421875
313277.31735815556,215.2283935546875,-199.31710815429688,-207.8617706298828,-340.8194580078125,126.84806060791016,284.5319519042969,144.39503479003906,-480.8704528808594
313277.3213581556,213.3319091796875,-201.5293426513672,-210.0425262451172,-342.9627380371094,124.64582061767578,282.2847595214844,142.22377014160156,-482.88433837890625
313277.32535815553,212.46310424804688,-202.51954650878906,-210.9153289794922,-343.74560546875,123.58517456054688,281.2945556640625,141.1815948486328,-483.8135986328125
313277.32935815555,214.6323699951172,-200.2373809814453,-208.44680786132812,-341.1791687011719,125.91780853271484,283.7370910644531,143.5292205810547,-481.68280029296875
313277.33335815556,216.73268127441406,-198.1185760498047,-206.41793823242188,-339.0993347167969,128.1395263671875,286.09771728515625,145.65951538085938,-479.8542785644531
313277.3373581556,216.08670043945312,-198.98837280273438,-207.37916564941406,-340.1264953613281,127.3376693725586,285.2489013671875,144.89163208007812,-480.7060852050781
313277.34135815554,214.08779907226562,-201.5038604736328,-209.85418701171875,-342.6619873046875,124.93659210205078,282.8453063964844,142.62095642089844,-483.06121826171875
313277.34535815555,213.1360626220703,-202.40713500976562,-210.72499084472656,-343.562255859375,123.95237731933594,281.8651123046875,141.6382293701172,-483.9440002441406
313277.34935815557,214.88966369628906,-200.14645385742188,-208.45779418945312,-341.2416076660156,126.0157241821289,283.88299560546875,143.71707153320312,-481.7937316894531
313277.3533581556,216.2435760498047,-198.671630859375,-206.9779815673828,-339.7163391113281,127.47006225585938,285.437255859375,145.2588348388672,-480.3153991699219
313277.35735815554,215.7694549560547,-199.3455810546875,-207.68142700195312,-340.4407653808594,126.9639663696289,284.9571228027344,144.6873016357422,-480.952392578125
313277.36135815555,214.1207733154297,-201.26055908203125,-209.66783142089844,-342.51409912109375,125.14142608642578,283.05914306640625,142.78282165527344,-482.71746826171875
313277.36535815557,213.1165771484375,-202.21978759765625,-210.632568359375,-343.50531005859375,124.0068359375,281.881591796875,141.68069458007812,-483.66522216796875
313277.3693581556,214.97508239746094,-199.96060180664062,-208.37387084960938,-341.0982360839844,126.1556167602539,284.0593566894531,143.76702880859375,-481.60137939453125
313277.37335815554,216.386962890625,-198.35337829589844,-206.83160400390625,-339.6039123535156,127.77332305908203,285.6116027832031,145.37025451660156,-480.01263427734375
313277.37735815556,215.77244567871094,-199.29063415527344,-207.7393798828125,-340.59112548828125,126.97496032714844,284.8327331542969,144.6837921142578,-480.8749694824219
313277.3813581556,214.102783203125,-201.42042541503906,-209.84568786621094,-342.70294189453125,125.01702880859375,283.0176696777344,142.73236083984375,-482.9842529296875
313277.3853581556,213.1815185546875,-202.33518981933594,-210.7209930419922,-343.59222412109375,124.05829620361328,282.0314636230469,141.733154296875,-483.9010314941406
313277.38935815555,214.63536071777344,-200.37477111816406,-208.7415771484375,-341.5083923339844,125.82588195800781,283.76556396484375,143.52822875976562,-482.0175476074219
313277.39335815556,216.0777130126953,-198.715087890625,-207.15135192871094,-339.91168212890625,127.3806381225586,285.2214050292969,145.14292907714844,-480.4093322753906
313277.3973581556,215.54364013671875,-199.70579528808594,-208.06161499023438,-340.83642578125,126.47335815429688,284.3001403808594,144.49844360351562,-481.23565673828125
313277.4013581556,213.714599609375,-202.00946044921875,-210.28134155273438,-343.0986328125,124.32308197021484,282.2257995605469,142.43409729003906,-483.343994140625
313277.40535815555,212.95620727539062,-202.4990692138672,-210.8668670654297,-343.6571960449219,123.7925033569336,281.7841491699219,141.55929565429688,-483.99346923828125
313277.40935815556,214.7332763671875,-200.0749969482422,-208.5177459716797,-341.2011413574219,126.08966827392578,284.0518493652344,143.59967041015625,-481.7662353515625
313277.4133581556,216.1696319580078,-198.5931854248047,-207.0319366455078,-339.6513977050781,127.5854721069336,285.4282531738281,145.17041015625,-480.3153991699219
313277.4173581556,215.8289031982422,-199.4964599609375,-207.8332977294922,-340.3303527832031,126.95947265625,285.0025939941406,144.555908203125,-481.17572021484375
313277.42135815555,214.13925170898438,-201.6407470703125,-209.92462158203125,-342.4906311035156,125.02002716064453,283.1410827636719,142.6304473876953,-483.2485656738281
313277.42535815557,213.37586975097656,-202.37167358398438,-210.60757446289062,-343.2055358886719,124.21217346191406,282.2872619628906,141.8600616455078,-483.9335021972656
313277.4293581556,215.31332397460938,-199.8536834716797,-208.10159301757812,-340.65557861328125,126.63773345947266,284.72381591796875,144.10426330566406,-481.56890869140625
313277.4333581556,216.58529663085938,-198.51475524902344,-206.76315307617188,-339.4330749511719,127.83177947998047,285.70953369140625,145.55560302734375,-480.1864929199219
313277.43735815556,215.8518829345703,-199.45599365234375,-207.7808380126953,-340.53466796875,126.89552307128906,284.73681640625,144.77471923828125,-480.995849609375
313277.4413581556,214.2371826171875,-201.4159393310547,-209.7512664794922,-342.5180969238281,124.95807647705078,282.9826965332031,142.91920471191406,-482.80889892578125
313277.4453581556,213.4313201904297,-202.19680786132812,-210.49267578125,-343.2884826660156,124.13273620605469,282.226318359375,142.00094604492188,-483.5712890625
313277.4493581556,214.9785919189453,-199.99856567382812,-208.41383361816406,-341.18914794921875,126.14212799072266,284.209716796875,143.87245178222656,-481.6008605957031
313277.45335815556,216.40943908691406,-198.53823852539062,-206.968994140625,-339.6953430175781,127.60945129394531,285.64306640625,145.504150390625,-480.1969909667969
313277.4573581556,215.6920166015625,-199.6183624267578,-208.04063415527344,-340.7514953613281,126.6801986694336,284.72430419921875,144.67030334472656,-481.2156677246094
313277.4613581556,213.95440673828125,-201.76165771484375,-210.17393493652344,-342.9952087402344,124.59986114501953,282.6459655761719,142.67291259765625,-483.2595520019531
313277.4653581556,213.22499084472656,-202.4665985107422,-210.84739685058594,-343.6841735839844,123.95886993408203,282.0684509277344,141.83457946777344,-484.01593017578125
313277.4693581556,215.03054809570312,-200.25686645507812,-208.59718322753906,-341.2975769042969,126.09566497802734,284.26318359375,143.92539978027344,-481.9266052246094
313277.4733581556,216.39895629882812,-198.79302978515625,-207.10787963867188,-339.7438049316406,127.48805236816406,285.653564453125,145.482666015625,-480.35687255859375
313277.4773581556,215.83590698242188,-199.3745574951172,-207.84129333496094,-340.5326843261719,126.77412414550781,284.8172302246094,144.80020141601562,-480.9289245605469
313277.4813581556,214.04232788085938,-201.54432678222656,-210.0045623779297,-342.8003845214844,124.72176361083984,282.67095947265625,142.69439697265625,-483.0167541503906
313277.4853581556,213.2060089111328,-202.37767028808594,-210.81341552734375,-343.64019775390625,123.9378890991211,281.84661865234375,141.74415588378906,-483.87255859375
313277.4893581556,214.95460510253906,-200.1714324951172,-208.5767059326172,-341.26959228515625,125.97026062011719,283.8799743652344,143.74905395507812,-481.7587585449219
313277.4933581556,216.4139404296875,-198.68911743164062,-207.055419921875,-339.6189270019531,127.44808197021484,285.32684326171875,145.288818359375,-480.2619323730469
313277.4973581556,215.8343963623047,-199.4874725341797,-207.90924072265625,-340.5036926269531,126.80159759521484,284.69683837890625,144.54940795898438,-481.0882873535156
313277.5013581556,214.04083251953125,-201.6962127685547,-210.12796020507812,-342.79388427734375,124.59886169433594,282.5410461425781,142.5000457763672,-483.2430725097656
313277.5053581556,213.1790313720703,-202.5210418701172,-210.89434814453125,-343.59222412109375,123.81798553466797,281.9050598144531,141.6057586669922,-484.0843811035156
313277.5093581556,215.1834259033203,-200.09548950195312,-208.4378204345703,-340.9718322753906,126.32398223876953,284.5794372558594,143.76803588867188,-481.8466796875
313277.5133581556,216.46839904785156,-198.6666259765625,-207.0284423828125,-339.5689392089844,127.78431701660156,285.9588317871094,145.2598419189453,-480.4682922363281
313277.51735815563,215.8019256591797,-199.5414276123047,-207.89425659179688,-340.4922180175781,126.99494171142578,285.1324768066406,144.53890991210938,-481.2371520996094
313277.5213581556,213.91943359375,-201.72068786621094,-210.12547302246094,-342.82135009765625,124.80419921875,282.9452209472656,142.42410278320312,-483.25555419921875
313277.5253581556,213.03164672851562,-202.64894104003906,-211.02325439453125,-343.7516174316406,123.84596252441406,282.0494384765625,141.46836853027344,-484.1808166503906
313277.5293581556,214.65884399414062,-200.5736083984375,-208.9569091796875,-341.5913391113281,125.80989074707031,284.1053161621094,143.3818359375,-482.2878112792969
313277.53335815563,216.28404235839844,-198.80751037597656,-207.2527618408203,-339.94915771484375,127.50603485107422,285.6915283203125,145.22386169433594,-480.5711975097656
313277.5373581556,215.5606231689453,-199.78623962402344,-208.1945037841797,-340.975341796875,126.62623596191406,284.7038269042969,144.43899536132812,-481.3815612792969
313277.5413581556,213.77554321289062,-202.0209503173828,-210.34230041503906,-343.15008544921875,124.42300415039062,282.528076171875,142.39813232421875,-483.4019470214844
313277.5453581556,213.0841064453125,-202.53753662109375,-211.0067596435547,-343.8700256347656,123.7040786743164,281.8126525878906,141.59576416015625,-484.1258544921875
313277.5493581556,214.80223083496094,-200.23587036132812,-208.84999084472656,-341.6752624511719,125.87084197998047,283.9659118652344,143.59666442871094,-482.1149597167969
313277.5533581556,216.2415771484375,-198.76255798339844,-207.32769775390625,-340.125,127.39562225341797,285.5331726074219,145.19039916992188,-480.6436462402344
313277.5573581556,215.7439727783203,-199.57839965820312,-208.132568359375,-341.0732421875,126.70317840576172,284.6888427734375,144.59336853027344,-481.40203857421875
313277.5613581556,213.98887634277344,-201.645751953125,-210.2069091796875,-343.18804931640625,124.74974060058594,282.7618713378906,142.55599975585938,-483.3919372558594
313277.5653581556,213.09359741210938,-202.4506072998047,-210.95530700683594,-343.7890930175781,123.89142608642578,282.0534362792969,141.52932739257812,-484.1403503417969
313277.5693581556,214.5803985595703,-200.3937530517578,-208.88246154785156,-341.6183166503906,125.68849182128906,283.76507568359375,143.39883422851562,-482.1234436035156
313277.57335815555,215.94131469726562,-199.00135803222656,-207.5025634765625,-340.2309265136719,126.9864501953125,284.9861145019531,144.93409729003906,-480.7210693359375
313277.57735815557,215.52464294433594,-199.75177001953125,-208.20449829101562,-340.9528503417969,126.302001953125,284.20074462890625,144.32208251953125,-481.3670654296875
313277.5813581556,213.92343139648438,-201.68821716308594,-210.07400512695312,-342.8738098144531,124.48395538330078,282.2537841796875,142.4365997314453,-483.15362548828125
313277.5853581556,213.46730041503906,-202.28173828125,-210.59759521484375,-343.3529357910156,123.99134826660156,281.989990234375,141.84556579589844,-483.776123046875
313277.58935815556,215.06600952148438,-200.31082153320312,-208.60618591308594,-341.20513916015625,125.83287048339844,283.9419250488281,143.6975860595703,-481.9750671386719
313277.5933581556,216.3564910888672,-199.00486755371094,-207.292236328125,-339.8887023925781,127.29620361328125,285.4482421875,145.14593505859375,-480.73907470703125
313277.5973581556,215.88685607910156,-199.68081665039062,-208.04713439941406,-340.68206787109375,126.76812744140625,285.0190734863281,144.54591369628906,-481.4175109863281
313277.6013581556,214.20420837402344,-201.79063415527344,-210.1714324951172,-342.8828125,124.8356704711914,283.13409423828125,142.52902221679688,-483.50634765625
313277.60535815556,213.423828125,-202.65744018554688,-210.9702911376953,-343.7081298828125,123.92989349365234,282.2337951660156,141.6647186279297,-484.3941345214844
313277.6093581556,214.99957275390625,-200.50465393066406,-208.80902099609375,-341.43145751953125,125.80889129638672,284.0748291015625,143.59417724609375,-482.30181884765625
313277.6133581556,216.39544677734375,-198.88694763183594,-207.22727966308594,-339.8727111816406,127.5799789428711,285.782958984375,145.16990661621094,-480.7160949707031
313277.6173581556,215.85289001464844,-199.70730590820312,-208.07760620117188,-340.8514404296875,126.87154388427734,285.02557373046875,144.56239318847656,-481.4534912109375
313277.62135815556,214.059326171875,-201.76315307617188,-210.27784729003906,-343.2155456542969,124.6802978515625,282.7943420410156,142.55999755859375,-483.5068359375
313277.6253581556,213.22898864746094,-202.4401092529297,-210.94032287597656,-343.8705139160156,123.92889404296875,282.1478576660156,141.7096710205078,-484.1458435058594
313277.6293581556,214.7437744140625,-200.3258056640625,-208.8170166015625,-341.7077331542969,125.87134552001953,284.07183837890625,143.58168029785156,-482.1424560546875
313277.6333581556,216.04522705078125,-198.96189880371094,-207.46609497070312,-340.3448486328125,127.18429565429688,285.3288269042969,145.0340118408203,-480.779541015625
313277.63735815557,215.54763793945312,-199.8406982421875,-208.29043579101562,-341.18017578125,126.38793182373047,284.5399475097656,144.4110107421875,-481.53741455078125
313277.6413581556,214.13525390625,-201.6927032470703,-210.1314697265625,-343.0821533203125,124.70477294921875,282.9002685546875,142.69338989257812,-483.3249816894531
313277.6453581556,213.38885498046875,-202.41163635253906,-210.79592895507812,-343.72314453125,124.01283264160156,282.2717590332031,141.84307861328125,-484.0704040527344
313277.6493581556,214.92312622070312,-200.28384399414062,-208.6661376953125,-341.4779357910156,125.94628143310547,284.1572570800781,143.7605438232422,-482.0120544433594
313277.65335815557,216.40594482421875,-198.83749389648438,-207.1703338623047,-339.89520263671875,127.41461181640625,285.6280822753906,145.3772430419922,-480.51824951171875
313277.6573581556,215.96929931640625,-199.73228454589844,-208.01815795898438,-340.7649841308594,126.66020965576172,284.7822570800781,144.7232666015625,-481.318115234375
313277.6613581556,214.23268127441406,-201.85757446289062,-210.22837829589844,-343.0501708984375,124.664306640625,282.8258361816406,142.64642333984375,-483.4913635253906
313277.6653581556,213.65115356445312,-202.58499145507812,-210.9183349609375,-343.76361083984375,124.04280853271484,282.2532958984375,141.92601013183594,-484.33367919921875
313277.66935815563,215.2393798828125,-200.568115234375,-208.8604736328125,-341.5943298339844,125.89732360839844,284.03936767578125,143.8264923095703,-482.417236328125
313277.6733581556,216.7122039794922,-198.96139526367188,-207.30172729492188,-339.9561462402344,127.3896255493164,285.5956115722656,145.40072631835938,-480.8619689941406
313277.6773581556,215.84388732910156,-200.17591857910156,-208.51925659179688,-341.2416076660156,126.26252746582031,284.46051025390625,144.4195098876953,-482.0135498046875
313277.6813581556,214.30812072753906,-202.12486267089844,-210.52114868164062,-343.3049621582031,124.4874496459961,282.7918701171875,142.6304473876953,-483.96148681640625
313277.68535815564,213.5567169189453,-202.69140625,-211.12066650390625,-343.9659423828125,124.00833129882812,282.36370849609375,141.8655548095703,-484.6554260253906
313277.6893581556,215.07200622558594,-200.68650817871094,-209.09478759765625,-341.8586120605469,125.87983703613281,284.1972351074219,143.71856689453125,-482.8174133300781
313277.6933581556,216.53134155273438,-199.26365661621094,-207.61297607421875,-340.2598876953125,127.27671813964844,285.5906066894531,145.25634765625,-481.30560302734375
313277.6973581556,216.0292510986328,-199.92462158203125,-208.40933227539062,-341.15667724609375,126.48785400390625,284.6923522949219,144.65032958984375,-481.96759033203125
313277.70135815564,214.4185333251953,-202.04942321777344,-210.48667907714844,-343.4163818359375,124.43998718261719,282.6624755859375,142.7638397216797,-483.990966796875
313277.7053581556,213.54722595214844,-202.86627197265625,-211.29702758789062,-344.2891845703125,123.6890869140625,282.0879211425781,141.77862548828125,-484.939697265625
313277.7093581556,215.27734375,-200.77694702148438,-209.15574645996094,-342.0569763183594,125.69647979736328,284.1842346191406,143.7780303955078,-482.9947509765625
313277.7133581556,216.78614807128906,-199.21119689941406,-207.5745086669922,-340.4767150878906,127.38163757324219,285.8109436035156,145.44268798828125,-481.44549560546875
313277.71735815564,216.19212341308594,-200.00355529785156,-208.3394012451172,-341.2596130371094,126.70217895507812,285.1090087890625,144.7322540283203,-482.1179504394531
313277.72135815566,214.63685607910156,-201.9345245361328,-210.24037170410156,-343.1481018066406,124.87713623046875,283.4328308105469,142.8732452392578,-483.91900634765625
313277.7253581556,214.02085876464844,-202.52154541015625,-210.79843139648438,-343.6711730957031,124.13972473144531,282.700439453125,142.21827697753906,-484.42010498046875
313277.72935815563,215.4731903076172,-200.50067138671875,-208.79153442382812,-341.60382080078125,125.91830444335938,284.4795227050781,144.0358123779297,-482.4786682128906
313277.73335815564,216.65025329589844,-199.0897979736328,-207.42213439941406,-340.189453125,127.21627044677734,285.6435852050781,145.38323974609375,-481.038330078125
313277.73735815566,215.9637908935547,-199.9541015625,-208.3343963623047,-341.09423828125,126.39842224121094,284.7283020019531,144.5149383544922,-481.80670166015625
313277.7413581556,214.53094482421875,-201.7826385498047,-210.1644287109375,-342.9737243652344,124.90211486816406,283.2844543457031,142.76783752441406,-483.61175537109375
313277.74535815563,213.7760467529297,-202.39414978027344,-210.79693603515625,-343.6152038574219,124.30709075927734,282.67095947265625,141.97296142578125,-484.314697265625
313277.74935815565,215.37826538085938,-200.2108917236328,-208.62615966796875,-341.3675231933594,126.26203155517578,284.5449523925781,143.92140197753906,-482.2228698730469
313277.75335815566,216.54583740234375,-199.04283142089844,-207.42213439941406,-340.11651611328125,127.37664031982422,285.4936828613281,145.21836853027344,-480.9968566894531
313277.7573581556,215.88885498046875,-199.95860290527344,-208.32540893554688,-341.0992431640625,126.56578826904297,284.6123962402344,144.50894165039062,-481.8127136230469
313277.76135815564,214.4010467529297,-201.76914978027344,-210.18441772460938,-342.9917297363281,124.79420471191406,282.98870849609375,142.78732299804688,-483.5727844238281
313277.76535815565,213.85598754882812,-202.4561004638672,-210.78494262695312,-343.5177917480469,124.1352310180664,282.507080078125,142.09486389160156,-484.2532653808594
313277.76935815567,215.41822814941406,-200.55662536621094,-208.78004455566406,-341.37152099609375,126.04620361328125,284.489013671875,143.9079132080078,-482.42620849609375
313277.7733581556,216.6857147216797,-198.99935913085938,-207.32470703125,-339.88720703125,127.5799789428711,286.03875732421875,145.3877410888672,-480.9573974609375
313277.77735815564,216.14366149902344,-199.77874755859375,-208.2209930419922,-340.90289306640625,126.72016143798828,285.0910339355469,144.74574279785156,-481.7867126464844
313277.78135815565,214.5354461669922,-201.90853881835938,-210.2848358154297,-343.0726623535156,124.75923156738281,283.1445617675781,142.84027099609375,-483.8141174316406
313277.78535815567,213.91543579101562,-202.44410705566406,-210.81741333007812,-343.55975341796875,124.23715209960938,282.6974182128906,142.0808868408203,-484.4181213378906
313277.7893581556,215.37176513671875,-200.50816345214844,-208.85498046875,-341.4979248046875,126.01322937011719,284.42205810546875,143.91990661621094,-482.60858154296875
313277.79335815564,216.63327026367188,-199.25216674804688,-207.62596130371094,-340.2698974609375,127.23575592041016,285.6036071777344,145.36325073242188,-481.3560791015625
313277.79735815566,215.99827575683594,-200.1134796142578,-208.54623413085938,-341.31207275390625,126.37294006347656,284.65338134765625,144.6802978515625,-482.15594482421875
313277.8013581556,214.4635009765625,-201.95449829101562,-210.41273498535156,-343.2585144042969,124.728759765625,283.0501403808594,142.84877014160156,-484.00396728515625
313277.80535815563,213.91343688964844,-202.47608947753906,-210.90135192871094,-343.75860595703125,124.22066497802734,282.60601806640625,142.17181396484375,-484.5460205078125
313277.80935815565,215.4691925048828,-200.38026428222656,-208.8310089111328,-341.6063232421875,126.14462280273438,284.57293701171875,144.02532958984375,-482.6015625
313277.81335815566,216.64076232910156,-198.9444122314453,-207.47158813476562,-340.21295166015625,127.53800964355469,285.9158630371094,145.3177947998047,-481.1752014160156
313277.8173581557,216.03125,-199.9196319580078,-208.39285278320312,-341.1032409667969,126.64922332763672,285.1094970703125,144.5634002685547,-482.009033203125
313277.82135815563,214.7632598876953,-201.6047821044922,-210.10398864746094,-342.87530517578125,125.2613296508789,283.7835693359375,142.9526824951172,-483.73516845703125
313277.82535815565,214.01686096191406,-202.3376922607422,-210.79693603515625,-343.605712890625,124.42500305175781,282.9527282714844,142.1083526611328,-484.5135498046875
313277.82935815566,215.2283935546875,-200.5666046142578,-209.00836181640625,-341.8271484375,125.96476745605469,284.39556884765625,143.74954223632812,-482.7674560546875
313277.8333581557,216.57281494140625,-199.2071990966797,-207.5800018310547,-340.350341796875,127.35015869140625,285.7809753417969,145.27783203125,-481.2471618652344
313277.83735815564,216.08619689941406,-199.94711303710938,-208.32640075683594,-341.0732421875,126.60675811767578,285.0730285644531,144.70228576660156,-481.8216857910156
313277.84135815565,214.58590698242188,-201.818115234375,-210.2318878173828,-343.04766845703125,124.72225952148438,283.2330017089844,142.939697265625,-483.602783203125
313277.84535815567,213.89794921875,-202.55902099609375,-210.8194122314453,-343.59222412109375,124.05179595947266,282.67596435546875,142.16781616210938,-484.2462463378906
313277.8493581557,215.244873046875,-200.5416259765625,-208.8474884033203,-341.557861328125,125.79490661621094,284.2806701660156,143.89793395996094,-482.298828125
313277.85335815564,216.64825439453125,-198.9983673095703,-207.34518432617188,-340.0615539550781,127.27871704101562,285.72052001953125,145.46617126464844,-480.7300720214844
313277.85735815566,216.04522705078125,-199.90963745117188,-208.2349853515625,-340.9668273925781,126.57328033447266,285.0965270996094,144.69229125976562,-481.5948791503906
313277.8613581557,214.38555908203125,-201.83709716796875,-210.17892456054688,-343.022705078125,124.74923706054688,283.20751953125,142.81478881835938,-483.4408874511719
313277.8653581557,213.74807739257812,-202.38365173339844,-210.69900512695312,-343.57574462890625,124.14922332763672,282.60150146484375,142.1563262939453,-484.0384216308594
313277.8693581557,215.42222595214844,-200.42921447753906,-208.6791229248047,-341.47991943359375,125.98774719238281,284.4150695800781,144.0962677001953,-482.2568359375
313277.87335815566,216.7481689453125,-199.0618133544922,-207.3861541748047,-340.20294189453125,127.31568908691406,285.56964111328125,145.5186309814453,-481.0498046875
313277.8773581557,216.1211700439453,-199.9356231689453,-208.32040405273438,-341.1167297363281,126.49884033203125,284.7213134765625,144.71726989746094,-481.93060302734375
313277.8813581557,214.404541015625,-202.11936950683594,-210.45570373535156,-343.2290344238281,124.41800689697266,282.8937683105469,142.65042114257812,-484.03741455078125
313277.8853581557,213.61866760253906,-202.83529663085938,-211.14065551757812,-343.90997314453125,123.62464141845703,282.11090087890625,141.78262329101562,-484.78082275390625
313277.88935815566,215.17543029785156,-200.55662536621094,-208.90594482421875,-341.6128234863281,125.6285400390625,283.9659118652344,143.7555389404297,-482.5860900878906
313277.8933581557,216.4034423828125,-199.04632568359375,-207.44561767578125,-340.1584777832031,127.2677230834961,285.6221008300781,145.18040466308594,-481.1177673339844
313277.8973581557,215.99526977539062,-199.75425720214844,-208.18801879882812,-340.9528503417969,126.70317840576172,285.0775146484375,144.62783813476562,-481.78521728515625
313277.90135815565,214.57540893554688,-201.7156982421875,-210.10498046875,-342.8768005371094,124.83067321777344,283.3104553222656,142.89222717285156,-483.65423583984375
313277.90535815567,213.64865112304688,-202.62046813964844,-210.94830322265625,-343.7525939941406,123.81898498535156,282.2787780761719,141.91351318359375,-484.5040588378906
313277.9093581557,215.12197875976562,-200.6650390625,-208.9339141845703,-341.6288146972656,125.591064453125,283.928955078125,143.737548828125,-482.5700988769531
313277.9133581557,216.4484100341797,-199.00836181640625,-207.42861938476562,-340.0650634765625,127.17080688476562,285.5016784667969,145.22586059570312,-481.0223388671875
313277.91735815565,215.80941772460938,-200.0170440673828,-208.47279357910156,-341.1501770019531,126.32247924804688,284.7572937011719,144.43350219726562,-482.0664978027344
313277.92135815567,214.29713439941406,-202.0429229736328,-210.4032440185547,-343.152587890625,124.41500854492188,282.8623046875,142.67539978027344,-483.91253662109375
313277.9253581557,213.5567169189453,-202.65194702148438,-211.0497283935547,-343.85552978515625,123.76652526855469,282.15887451171875,141.8605499267578,-484.5694885253906
313277.9293581557,215.06552124023438,-200.4192352294922,-208.9164276123047,-341.71075439453125,125.87483978271484,284.1512756347656,143.72406005859375,-482.4971618652344
313277.93335815566,216.35897827148438,-198.99986267089844,-207.5380401611328,-340.2768859863281,127.20227813720703,285.48968505859375,145.1144561767578,-481.0228271484375
313277.9373581557,215.88136291503906,-199.7637481689453,-208.28443908691406,-341.029296875,126.60975646972656,284.96612548828125,144.44149780273438,-481.68731689453125
313277.9413581557,214.39305114746094,-201.56231689453125,-210.0760040283203,-342.9052734375,124.96207427978516,283.28546142578125,142.66390991210938,-483.4264221191406
313277.9453581557,213.57371520996094,-202.30421447753906,-210.80592346191406,-343.67266845703125,124.17169952392578,282.4710998535156,141.76962280273438,-484.2182922363281
313277.94935815566,215.10348510742188,-200.31781005859375,-208.80502319335938,-341.601318359375,126.02971649169922,284.35211181640625,143.62864685058594,-482.3812561035156
313277.9533581557,216.71420288085938,-198.92092895507812,-207.34368896484375,-340.0915222167969,127.45108032226562,285.7914733886719,145.2328643798828,-480.92340087890625
313277.9573581557,216.2111053466797,-199.85418701171875,-208.27894592285156,-340.9663391113281,126.66520690917969,285.1134948730469,144.50144958496094,-481.8341979980469
313277.9613581557,214.67283630371094,-201.56581115722656,-209.986572265625,-342.6639709472656,125.07398223876953,283.50677490234375,142.76583862304688,-483.46636962890625
313277.96535815566,213.95091247558594,-202.01644897460938,-210.38525390625,-343.0891418457031,124.5768814086914,282.89776611328125,142.11935424804688,-483.904541015625
313277.9693581557,215.5216522216797,-200.21438598632812,-208.49276733398438,-341.1222229003906,126.21756744384766,284.4420471191406,143.9384002685547,-482.1149597167969
313277.97335815564,216.69570922851562,-199.27114868164062,-207.49456787109375,-340.0590515136719,127.24324798583984,285.5846252441406,145.1079559326172,-481.19769287109375
313277.97735815565,216.12767028808594,-199.76425170898438,-208.2264862060547,-340.91339111328125,126.7646255493164,285.1649475097656,144.43350219726562,-481.93310546875
313277.98135815567,214.3216094970703,-201.78213500976562,-210.17543029785156,-342.9432678222656,124.80669403076172,283.1265869140625,142.48655700683594,-483.76214599609375
313277.9853581557,213.6556396484375,-202.28024291992188,-210.64805603027344,-343.4163818359375,124.24964141845703,282.5185852050781,141.85606384277344,-484.2662353515625
313277.98935815564,215.45021057128906,-200.31930541992188,-208.7310791015625,-341.3705139160156,126.0596923828125,284.5339660644531,143.73805236816406,-482.49114990234375
313277.99335815565,216.85308837890625,-199.0413360595703,-207.49757385253906,-340.103515625,127.36964416503906,285.9403381347656,145.1329345703125,-481.28363037109375
313277.99735815567,216.0886993408203,-200.02354431152344,-208.49476623535156,-341.1706848144531,126.44088745117188,284.8916931152344,144.30210876464844,-482.1604309082031
313278.0013581557,214.1762237548828,-202.0823974609375,-210.50416564941406,-343.2984619140625,124.27911376953125,282.50909423828125,142.3291778564453,-484.00244140625
313278.00535815564,213.38136291503906,-202.61996459960938,-211.0117645263672,-343.68316650390625,123.57567596435547,281.97650146484375,141.55479431152344,-484.529541015625
313278.00935815566,215.15245056152344,-200.53713989257812,-208.94241333007812,-341.5108947753906,125.56958770751953,284.00189208984375,143.4807586669922,-482.59356689453125
313278.0133581557,216.48138427734375,-199.24667358398438,-207.68492126464844,-340.2853698730469,127.0573959350586,285.5071716308594,144.80120849609375,-481.3530578613281
313278.0173581557,215.77894592285156,-200.0655059814453,-208.54373168945312,-341.1576843261719,126.54130554199219,285.05853271484375,143.99984741210938,-482.1639099121094
313278.02135815565,214.06781005859375,-202.04592895507812,-210.4477081298828,-343.087646484375,124.64732360839844,283.0896301269531,142.14932250976562,-483.9649963378906
313278.02535815566,213.4258270263672,-202.39614868164062,-210.88336181640625,-343.58575439453125,124.01832580566406,282.3232421875,141.54481506347656,-484.37615966796875
313278.0293581557,215.2738494873047,-200.18540954589844,-208.73358154296875,-341.3755187988281,126.04620361328125,284.4779968261719,143.5292205810547,-482.30780029296875
313278.0333581557,216.36947631835938,-199.13026428222656,-207.68991088867188,-340.28887939453125,127.03840637207031,285.51617431640625,144.6553192138672,-481.2341613769531
313278.03735815565,215.56761169433594,-200.21389770507812,-208.73757934570312,-341.4104919433594,126.04020690917969,284.3805847167969,143.74554443359375,-482.23486328125
313278.04135815566,213.9359130859375,-201.99546813964844,-210.50765991210938,-343.174072265625,124.49844360351562,282.9017639160156,141.9679718017578,-484.00494384765625
313278.0453581557,213.10708618164062,-202.79981994628906,-211.20359802246094,-343.8305358886719,123.76403045654297,282.2687683105469,141.15362548828125,-484.85028076171875
313278.0493581557,214.92312622070312,-200.85337829589844,-209.16273498535156,-341.6852722167969,125.55509948730469,284.13427734375,143.10755920410156,-482.9233093261719
313278.05335815565,216.32000732421875,-199.34608459472656,-207.85028076171875,-340.3982849121094,126.89852142333984,285.4477233886719,144.5543975830078,-481.5943908691406
313278.05735815567,215.45120239257812,-200.34078979492188,-208.8744659423828,-341.43145751953125,126.08067321777344,284.66436767578125,143.6206512451172,-482.5216369628906
313278.0613581557,213.6661376953125,-202.21578979492188,-210.72349548339844,-343.3089599609375,124.23065185546875,282.69293212890625,141.74864196777344,-484.2237854003906
313278.0653581557,212.87026977539062,-202.8907470703125,-211.3729705810547,-343.9859313964844,123.38883209228516,281.68524169921875,140.95278930664062,-484.88226318359375
313278.0693581557,214.64434814453125,-200.88035583496094,-209.3485870361328,-341.8711242675781,125.3152847290039,283.8035583496094,142.85276794433594,-482.9902648925781
313278.07335815567,216.0817108154297,-199.55142211914062,-207.9906768798828,-340.55316162109375,126.6642074584961,285.1155090332031,144.3925323486328,-481.63433837890625
313278.0773581557,215.6040802001953,-200.2858428955078,-208.72857666015625,-341.3764953613281,125.99874114990234,284.3546142578125,143.83697509765625,-482.3627624511719
313278.0813581557,214.02484130859375,-202.02894592285156,-210.46868896484375,-343.1291198730469,124.3785400390625,282.7823791503906,142.06788635253906,-484.1493225097656
313278.0853581557,213.16453552246094,-202.7473602294922,-211.1586456298828,-343.81854248046875,123.7320556640625,282.2113342285156,141.17311096191406,-484.9402160644531
313278.0893581557,214.9021453857422,-200.71798706054688,-209.188720703125,-341.77117919921875,125.53361511230469,283.9334411621094,143.03211975097656,-482.98577880859375
313278.0933581557,216.34149169921875,-199.36407470703125,-207.84828186035156,-340.4032897949219,126.75763702392578,285.01556396484375,144.48495483398438,-481.5758972167969
313278.0973581557,215.6845245361328,-200.1444549560547,-208.6371612548828,-341.2166442871094,126.15261840820312,284.382080078125,143.76852416992188,-482.3467712402344
313278.1013581557,213.7685546875,-202.32020568847656,-210.72598266601562,-343.2560119628906,124.11774444580078,282.5220642089844,141.711181640625,-484.3986511230469
313278.1053581557,212.88426208496094,-203.1060791015625,-211.49087524414062,-343.9989013671875,123.28791046142578,281.6572570800781,140.79490661621094,-485.176025390625
313278.1093581557,214.8591766357422,-200.87635803222656,-209.2696533203125,-341.69024658203125,125.44768524169922,283.9089660644531,142.91021728515625,-483.0227355957031
313278.1133581557,216.23507690429688,-199.5199432373047,-207.94970703125,-340.2638854980469,126.86505126953125,285.4642333984375,144.29661560058594,-481.6458435058594
313278.1173581557,215.60008239746094,-200.23187255859375,-208.82301330566406,-341.18267822265625,126.11315155029297,284.7203063964844,143.55470275878906,-482.4012451171875
313278.1213581557,213.6806182861328,-202.3012237548828,-210.8893585205078,-343.3858947753906,124.22216033935547,282.76837158203125,141.53231811523438,-484.4555969238281
313278.1253581557,213.17352294921875,-202.7393798828125,-211.236083984375,-343.810546875,123.82298278808594,282.27825927734375,141.06520080566406,-484.88775634765625
313278.1293581557,214.93661499023438,-200.6220703125,-209.1922149658203,-341.7536926269531,125.67300415039062,284.12078857421875,143.01962280273438,-482.92132568359375
313278.1333581557,216.51486206054688,-199.1867218017578,-207.80181884765625,-340.33184814453125,127.06688690185547,285.5471496582031,144.56239318847656,-481.54290771484375
313278.1373581557,215.65304565429688,-200.28334045410156,-208.85348510742188,-341.44146728515625,125.96576690673828,284.2366943359375,143.70558166503906,-482.482177734375
313278.1413581557,213.88645935058594,-202.05142211914062,-210.589599609375,-343.2705078125,124.36505126953125,282.549560546875,141.8585662841797,-484.1683349609375
313278.1453581557,213.35337829589844,-202.40164184570312,-210.87086486816406,-343.5198059082031,124.03530883789062,282.33123779296875,141.27102661132812,-484.55352783203125
313278.1493581557,215.460693359375,-200.20440673828125,-208.5926971435547,-341.0927429199219,126.08617401123047,284.4665222167969,143.4407958984375,-482.46368408203125
313278.1533581557,216.92202758789062,-198.95689392089844,-207.28823852539062,-339.7213439941406,127.38863372802734,285.79046630859375,144.89263916015625,-481.21966552734375
313278.1573581557,216.22308349609375,-199.88516235351562,-208.16253662109375,-340.6475830078125,126.53581237792969,284.86468505859375,144.18919372558594,-482.052001953125
313278.1613581557,214.58290100097656,-201.78863525390625,-209.9790802001953,-342.5995178222656,124.59436798095703,282.81134033203125,142.55300903320312,-483.76165771484375
313278.1653581557,213.77305603027344,-202.47158813476562,-210.6650390625,-343.260498046875,123.79500579833984,282.19482421875,141.75613403320312,-484.46856689453125
313278.1693581557,215.4582061767578,-200.43421936035156,-208.75006103515625,-341.2251281738281,125.6275405883789,284.1432800292969,143.57418823242188,-482.5211486816406
313278.1733581557,216.77764892578125,-199.22817993164062,-207.51954650878906,-340.006591796875,126.8850326538086,285.2938537597656,145.02952575683594,-481.1747131347656
313278.1773581557,215.9757843017578,-199.92262268066406,-208.45530700683594,-341.0677490234375,126.2115707397461,284.5009765625,144.19468688964844,-481.965576171875
313278.1813581557,214.07281494140625,-201.70220947265625,-210.42222595214844,-343.1630859375,124.48095703125,282.71441650390625,142.2412567138672,-483.8240966796875
313278.1853581557,213.44480895996094,-202.14735412597656,-210.88186645507812,-343.57574462890625,124.2071762084961,282.63946533203125,141.61474609375,-484.3411865234375
313278.1893581557,215.22088623046875,-200.32180786132812,-209.04232788085938,-341.70574951171875,125.89632415771484,284.3506164550781,143.50125122070312,-482.6345520019531
313278.1933581557,216.4983673095703,-199.22119140625,-207.9247283935547,-340.5861511230469,126.95947265625,285.3802795410156,144.793212890625,-481.4854736328125
313278.1973581557,215.82191467285156,-200.14794921875,-208.82301330566406,-341.5908508300781,126.06468963623047,284.3910827636719,144.1232452392578,-482.30230712890625
313278.2013581557,214.0668182373047,-202.13536071777344,-210.70249938964844,-343.4873352050781,124.24114990234375,282.7019348144531,142.271728515625,-484.2048034667969
313278.2053581557,213.71060180664062,-202.34718322753906,-210.85537719726562,-343.627197265625,123.96086883544922,282.4481201171875,141.88803100585938,-484.4755859375
313278.2093581557,215.79443359375,-200.09149169921875,-208.60968017578125,-341.3495178222656,126.0122299194336,284.4445495605469,144.09677124023438,-482.3387756347656
313278.2133581557,217.01596069335938,-198.84799194335938,-207.37966918945312,-340.14849853515625,127.17679595947266,285.46221923828125,145.45018005371094,-481.0268249511719
313278.2173581557,216.33999633789062,-199.7257843017578,-208.2424774169922,-341.0198059082031,126.47435760498047,284.8072509765625,144.64932250976562,-481.84417724609375
313278.22135815566,214.63536071777344,-201.55181884765625,-210.05502319335938,-342.8463439941406,124.9400863647461,283.3084411621094,142.7078857421875,-483.646728515625
313278.2253581557,214.06932067871094,-201.94300842285156,-210.4262237548828,-343.1325988769531,124.5608901977539,282.91375732421875,142.14283752441406,-484.098388671875
313278.2293581557,216.09368896484375,-199.6758270263672,-208.1200714111328,-340.63311767578125,126.70767211914062,285.072021484375,144.26963806152344,-481.8956298828125
313278.2333581557,217.40914916992188,-198.36936950683594,-206.84608459472656,-339.2626953125,127.99664306640625,286.25457763671875,145.5850830078125,-480.6391296386719
313278.23735815566,216.71519470214844,-199.2611541748047,-207.74937438964844,-340.20245361328125,127.25223541259766,285.4207458496094,144.79971313476562,-481.54791259765625
313278.2413581557,214.759765625,-201.52284240722656,-209.91664123535156,-342.4136657714844,125.11494445800781,283.27996826171875,142.73236083984375,-483.6907043457031
313278.2453581557,213.87347412109375,-202.35818481445312,-210.72299194335938,-343.24749755859375,124.28961181640625,282.5190734863281,141.85755920410156,-484.5360412597656
313278.2493581557,215.91783142089844,-200.03604125976562,-208.61618041992188,-341.0827331542969,126.36944580078125,284.6988220214844,143.9873504638672,-482.4876708984375
313278.25335815566,217.41363525390625,-198.80950927734375,-207.35218811035156,-339.8482360839844,127.466064453125,285.7669677734375,145.49114990234375,-481.1827087402344
313278.2573581557,216.83709716796875,-199.6923065185547,-208.18551635742188,-340.62310791015625,126.86954498291016,285.6141052246094,144.75173950195312,-482.01904296875
313278.2613581557,215.03753662109375,-201.67572021484375,-210.1099853515625,-342.64849853515625,125.01052856445312,283.8704833984375,142.8837432861328,-483.9150085449219
313278.2653581557,214.2806396484375,-202.38165283203125,-210.7374725341797,-343.3104553222656,124.18818664550781,283.0526428222656,142.15032958984375,-484.5694885253906
313278.2693581557,216.25405883789062,-200.3712615966797,-208.6791229248047,-341.234130859375,125.94978332519531,284.8217468261719,144.2686309814453,-482.6350402832031
313278.2733581557,217.5455322265625,-199.05381774902344,-207.37367248535156,-340.05157470703125,127.20127868652344,285.98529052734375,145.67550659179688,-481.2871398925781
313278.2773581557,216.78463745117188,-199.67532348632812,-208.07611083984375,-340.8584289550781,126.68769073486328,285.3258361816406,144.89064025878906,-481.86566162109375
313278.2813581557,214.90065002441406,-201.49986267089844,-209.94761657714844,-342.81634521484375,124.87064361572266,283.3349304199219,143.02561950683594,-483.54132080078125
313278.2853581557,214.3051300048828,-202.00396728515625,-210.4122314453125,-343.2560119628906,124.26762390136719,282.6534729003906,142.47357177734375,-484.00396728515625
313278.2893581557,215.9902801513672,-200.115966796875,-208.49627685546875,-341.2705993652344,125.9907455444336,284.3446044921875,144.29360961914062,-482.1878967285156
313278.2933581557,217.4251251220703,-198.6196746826172,-207.15284729003906,-339.90966796875,127.41610717773438,285.739501953125,145.7704315185547,-480.8065185546875
313278.2973581557,216.71969604492188,-199.35008239746094,-207.93222045898438,-340.7160339355469,126.99244689941406,285.3093566894531,144.98805236816406,-481.5718994140625
313278.30135815573,215.0325469970703,-201.17962646484375,-209.76925659179688,-342.5880432128906,125.40621185302734,283.57122802734375,143.17750549316406,-483.41143798828125
313278.3053581557,214.26266479492188,-201.91403198242188,-210.44520568847656,-343.29595947265625,124.7772216796875,282.894775390625,142.4246063232422,-484.22027587890625
313278.3093581557,216.343994140625,-199.90663146972656,-208.38136291503906,-341.0562744140625,126.71017456054688,285.04156494140625,144.5099334716797,-482.3362731933594
313278.3133581557,217.71490478515625,-198.67811584472656,-207.16233825683594,-339.80377197265625,127.89173126220703,286.2410888671875,145.83987426757812,-481.10577392578125
313278.31735815573,216.5183563232422,-199.727783203125,-208.23898315429688,-340.9808349609375,126.69368743896484,284.8167419433594,144.77871704101562,-481.8951416015625
313278.32135815575,214.50196838378906,-201.70819091796875,-210.14744567871094,-342.8468322753906,124.84466552734375,283.0011901855469,142.7208709716797,-483.56878662109375
313278.3253581557,213.7770538330078,-202.27674865722656,-210.8104248046875,-343.5063171386719,124.09976196289062,282.3761901855469,141.99794006347656,-484.2762451171875
313278.3293581557,215.88735961914062,-200.3442840576172,-208.89645385742188,-341.5638732910156,125.82238006591797,284.3006591796875,144.16871643066406,-482.5561218261719
313278.33335815574,217.47808837890625,-198.99586486816406,-207.52554321289062,-340.2379150390625,127.34317016601562,285.9803161621094,145.75094604492188,-481.2776184082031
313278.33735815575,216.82211303710938,-199.8646697998047,-208.3753662109375,-341.127197265625,126.6587142944336,285.4062805175781,144.9730682373047,-482.08148193359375
313278.3413581557,214.82571411132812,-201.90155029296875,-210.4012451171875,-343.2944641113281,124.51692962646484,283.0761413574219,142.93719482421875,-483.9005432128906
313278.3453581557,214.13525390625,-202.3946533203125,-210.85987854003906,-343.7396240234375,123.8839340209961,282.3507080078125,142.23326110839844,-484.2947082519531
313278.34935815574,216.1361541748047,-200.16543579101562,-208.61866760253906,-341.3430480957031,125.84886169433594,284.5389709472656,144.3275909423828,-482.09796142578125
313278.35335815576,217.44261169433594,-198.8030242919922,-207.36717224121094,-340.17047119140625,127.23825073242188,286.0347595214844,145.68299865722656,-480.93389892578125
313278.3573581557,216.80113220214844,-199.75575256347656,-208.33639526367188,-341.3265380859375,126.58827209472656,285.2339172363281,145.03102111816406,-481.9366149902344
313278.36135815573,214.9236297607422,-202.04542541503906,-210.57411193847656,-343.65869140625,124.59486389160156,283.2649841308594,143.01812744140625,-484.26873779296875
313278.36535815574,214.2156982421875,-202.66693115234375,-211.17662048339844,-344.2177429199219,124.16471099853516,282.9952087402344,142.24424743652344,-485.0526123046875
313278.36935815576,216.3599853515625,-200.44869995117188,-208.9284210205078,-341.8686218261719,126.1631088256836,284.98858642578125,144.44149780273438,-482.91680908203125
313278.3733581557,217.6064910888672,-199.30862426757812,-207.7903289794922,-340.7190246582031,127.30020141601562,286.0827331542969,145.67001342773438,-481.7612609863281
313278.37735815573,216.98797607421875,-200.00205993652344,-208.4937744140625,-341.4989013671875,126.7266616821289,285.373779296875,145.05101013183594,-482.3947448730469
313278.38135815575,215.1044921875,-201.9225311279297,-210.44021606445312,-343.540771484375,124.92060089111328,283.43682861328125,143.0960693359375,-484.2477722167969
313278.38535815576,214.24867248535156,-202.72589111328125,-211.22808837890625,-344.3431396484375,124.04530334472656,282.5805358886719,142.21527099609375,-485.0840759277344
313278.3893581557,216.2775421142578,-200.60357666015625,-209.12826538085938,-342.21484375,126.11115264892578,284.8092346191406,144.29161071777344,-483.1471252441406
313278.39335815574,217.7628631591797,-199.16372680664062,-207.73887634277344,-340.7859802246094,127.74234771728516,286.57135009765625,145.77142333984375,-481.7752380371094
313278.3973581557,217.07940673828125,-200.00906372070312,-208.51376342773438,-341.5778503417969,127.0618896484375,285.68304443359375,145.07298278808594,-482.4546813964844
313278.4013581557,215.11647033691406,-201.8505859375,-210.4337158203125,-343.5517578125,125.19888305664062,283.6636657714844,143.08108520507812,-484.2162780761719
313278.4053581557,214.61737060546875,-202.17433166503906,-210.77894592285156,-343.9429626464844,124.87213897705078,283.3623962402344,142.57847595214844,-484.6209716796875
313278.40935815574,216.72119140625,-200.02354431152344,-208.61866760253906,-341.7662048339844,126.69418334960938,285.136474609375,144.707275390625,-482.56011962890625
313278.4133581557,217.88925170898438,-198.97389221191406,-207.51905822753906,-340.6376037597656,127.69438934326172,286.1636657714844,145.92230224609375,-481.4629821777344
313278.4173581557,216.96299743652344,-200.08399963378906,-208.56521606445312,-341.63079833984375,126.72566223144531,285.415771484375,144.97256469726562,-482.4461975097656
313278.42135815567,215.16943359375,-201.95799255371094,-210.42123413085938,-343.46282958984375,124.85615539550781,283.5897216796875,143.11705017089844,-484.1808166503906
313278.4253581557,214.67233276367188,-202.2762451171875,-210.72198486328125,-343.73162841796875,124.38452911376953,283.056640625,142.62294006347656,-484.50555419921875
313278.4293581557,216.8755645751953,-200.1029815673828,-208.49476623535156,-341.37152099609375,126.43089294433594,285.200927734375,144.8561553955078,-482.482666015625
313278.4333581557,218.0970916748047,-198.99037170410156,-207.3701629638672,-340.2469177246094,127.53001403808594,286.3275451660156,146.17010498046875,-481.3420715332031
313278.4373581557,217.11187744140625,-199.94610595703125,-208.34140014648438,-341.3480224609375,126.72515869140625,285.4537353515625,145.25584411621094,-482.223388671875
313278.4413581557,215.2323760986328,-201.9120330810547,-210.33230590820312,-343.40887451171875,124.86564636230469,283.48681640625,143.3203887939453,-484.1258544921875
313278.4453581557,214.72679138183594,-202.2947235107422,-210.74098205566406,-343.8545227050781,124.35455322265625,282.9817199707031,142.80979919433594,-484.53753662109375
313278.4493581557,216.64324951171875,-200.1639404296875,-208.62916564941406,-341.7182312011719,126.33647155761719,285.0110778808594,144.79171752929688,-482.5001525878906
313278.4533581557,218.1075897216797,-198.82000732421875,-207.23828125,-340.3348388671875,127.90071868896484,286.6268005371094,146.1815948486328,-481.20867919921875
313278.4573581557,217.31422424316406,-199.83619689941406,-208.18551635742188,-341.342529296875,127.0573959350586,285.697021484375,145.3782501220703,-482.1494445800781
313278.4613581557,215.57261657714844,-201.8670654296875,-210.19540405273438,-343.4608459472656,125.22935485839844,283.8609924316406,143.54420471191406,-484.19830322265625
313278.4653581557,215.08749389648438,-202.42262268066406,-210.70950317382812,-343.9834289550781,124.65731048583984,283.3708801269531,142.98016357421875,-484.8577575683594
313278.4693581557,217.38316345214844,-199.92962646484375,-208.35787963867188,-341.6063232421875,126.92749786376953,285.66357421875,145.30030822753906,-482.6725158691406
313278.4733581557,218.71409606933594,-198.74456787109375,-207.15634155273438,-340.3688049316406,128.1824951171875,286.93255615234375,146.62974548339844,-481.4539794921875
313278.4773581557,217.8562774658203,-199.6123809814453,-208.02114868164062,-341.25811767578125,127.49454498291016,286.2066345214844,145.7879180908203,-482.2253723144531
313278.4813581557,215.7544708251953,-201.75216674804688,-210.1029815673828,-343.33343505859375,125.43618774414062,284.13427734375,143.6261444091797,-484.249755859375
313278.4853581557,215.22488403320312,-202.29173278808594,-210.59059143066406,-343.8095703125,124.82018280029297,283.5207824707031,142.98765563964844,-484.79083251953125
313278.4893581557,217.2093048095703,-200.2593536376953,-208.564208984375,-341.7247314453125,126.74564361572266,285.5626525878906,144.93710327148438,-482.85137939453125
313278.4933581557,218.26095581054688,-199.08729553222656,-207.46908569335938,-340.7020568847656,127.83377075195312,286.48638916015625,146.1096649169922,-481.641845703125
313278.49735815567,217.2547607421875,-200.04502868652344,-208.38536071777344,-341.5973205566406,126.89852142333984,285.6875305175781,145.19888305664062,-482.4601745605469
313278.5013581557,215.4117431640625,-202.0369415283203,-210.287841796875,-343.4668273925781,125.06649017333984,284.0873107910156,143.32188415527344,-484.3751525878906
313278.5053581557,214.99757385253906,-202.52554321289062,-210.7569580078125,-343.9939270019531,124.6113510131836,283.6696472167969,142.81878662109375,-485.00115966796875
313278.5093581557,217.0099639892578,-200.18740844726562,-208.47628784179688,-341.654296875,126.64971923828125,285.65606689453125,144.858154296875,-482.7284851074219
313278.5133581557,218.12457275390625,-198.865478515625,-207.20130920410156,-340.3413391113281,127.8042984008789,286.7252197265625,146.06219482421875,-481.25115966796875
313278.5173581557,217.033935546875,-200.0260467529297,-208.348388671875,-341.4884338378906,126.70068359375,285.55865478515625,145.06100463867188,-482.255859375
313278.52135815565,214.96859741210938,-201.96449279785156,-210.39474487304688,-343.6366882324219,124.7557373046875,283.45233154296875,143.0745849609375,-484.1758117675781
313278.52535815566,214.51495361328125,-202.4935760498047,-210.83889770507812,-344.0453796386719,124.19368743896484,282.90875244140625,142.51553344726562,-484.68890380859375
313278.5293581557,216.494873046875,-200.6435546875,-208.89344787597656,-342.0494689941406,125.957275390625,284.7577819824219,144.4324951171875,-482.880859375
313278.5333581557,217.62896728515625,-199.4619903564453,-207.7753448486328,-340.9388732910156,127.12234497070312,285.94635009765625,145.60057067871094,-481.7787170410156
313278.53735815565,216.76565551757812,-200.0350341796875,-208.5117645263672,-341.73321533203125,126.59676361083984,285.2988586425781,144.84817504882812,-482.35626220703125
313278.54135815566,214.6608428955078,-202.17633056640625,-210.6035919189453,-343.8810119628906,124.59486389160156,283.1875305175781,142.73635864257812,-484.36865234375
313278.5453581557,214.58689880371094,-202.34518432617188,-210.68751525878906,-343.9404602050781,124.34506225585938,282.9657287597656,142.53201293945312,-484.5420227050781
313278.5493581557,216.66873168945312,-200.29832458496094,-208.60418701171875,-341.7801818847656,126.1556167602539,284.8551940917969,144.54840087890625,-482.5241394042969
313278.55335815565,217.78634643554688,-199.0563201904297,-207.39215087890625,-340.4872131347656,127.32967376708984,286.0022888183594,145.76742553710938,-481.1947021484375
313278.55735815567,216.7771453857422,-200.05502319335938,-208.3643798828125,-341.4509582519531,126.44538116455078,285.0485534667969,144.81069946289062,-482.1114807128906
313278.5613581557,214.8172149658203,-202.07989501953125,-210.43072509765625,-343.5412902832031,124.55389404296875,283.1840515136719,142.87673950195312,-484.11187744140625
313278.5653581557,214.31211853027344,-202.55352783203125,-210.8968505859375,-344.02490234375,124.05030059814453,282.7214050292969,142.28921508789062,-484.6219482421875
313278.56935815566,216.46389770507812,-200.49267578125,-208.7650604248047,-341.78717041015625,125.99624633789062,284.73779296875,144.3101043701172,-482.6125793457031
313278.57335815567,218.0281524658203,-198.98037719726562,-207.30271911621094,-340.31585693359375,127.55249786376953,286.3090515136719,145.86135864257812,-481.19818115234375
313278.5773581557,217.05242919921875,-199.98707580566406,-208.3289031982422,-341.4229736328125,126.71017456054688,285.3887939453125,144.98756408691406,-482.2078857421875
313278.5813581557,215.0974884033203,-201.9639892578125,-210.27734375,-343.46484375,124.7782211303711,283.347412109375,143.0765838623047,-484.0863952636719
313278.58535815566,214.64234924316406,-202.37416076660156,-210.6740264892578,-343.92547607421875,124.26962280273438,282.8558044433594,142.5864715576172,-484.5205383300781
313278.5893581557,216.7806396484375,-200.13894653320312,-208.44480895996094,-341.6667785644531,126.43839263916016,285.1054992675781,144.69229125976562,-482.42620849609375
313278.5933581557,217.6424560546875,-199.1187744140625,-207.43911743164062,-340.6535949707031,127.49454498291016,286.16015625,145.67401123046875,-481.373046875
313278.59735815565,216.72518920898438,-200.0780029296875,-208.3613739013672,-341.5668640136719,126.66120910644531,285.3468017578125,144.86964416503906,-482.1499328613281
313278.60135815566,215.0760040283203,-201.8376007080078,-210.16893005371094,-343.41937255859375,124.96406555175781,283.61920166015625,143.16001892089844,-483.98846435546875
313278.6053581557,214.87017822265625,-202.07740783691406,-210.44871520996094,-343.7256164550781,124.64881896972656,283.3514099121094,142.78431701660156,-484.4176330566406
313278.6093581557,217.0259552001953,-200.09498596191406,-208.37686157226562,-341.58184814453125,126.55779266357422,285.3717956542969,144.83218383789062,-482.4756774902344
313278.61335815565,218.111083984375,-199.04632568359375,-207.3172149658203,-340.52618408203125,127.64492797851562,286.4449462890625,146.03822326660156,-481.3820495605469
313278.61735815566,217.1703338623047,-199.9735870361328,-208.20150756835938,-341.45745849609375,126.82757568359375,285.57464599609375,145.26333618164062,-482.2188720703125
313278.6213581556,215.26785278320312,-201.9280242919922,-210.1209716796875,-343.410888671875,124.98405456542969,283.6986389160156,143.36785888671875,-484.09088134765625
313278.62535815564,214.88116455078125,-202.421630859375,-210.56011962890625,-343.87152099609375,124.53540802001953,283.2674865722656,142.85276794433594,-484.6144714355469
313278.62935815565,217.01046752929688,-200.25186157226562,-208.43182373046875,-341.7212219238281,126.55179595947266,285.3128356933594,144.9061279296875,-482.61456298828125
313278.63335815567,218.33990478515625,-198.75355529785156,-207.04493713378906,-340.2638854980469,127.8872299194336,286.5788269042969,146.30999755859375,-481.1397399902344
313278.6373581556,217.42562866210938,-199.5913848876953,-207.90823364257812,-341.1172180175781,127.19678497314453,285.7994384765625,145.51364135742188,-481.8881530761719
313278.64135815564,215.5321502685547,-201.5023651123047,-209.8212127685547,-343.01519775390625,125.46916198730469,284.0623474121094,143.59666442871094,-483.7991027832031
313278.6453581556,215.15594482421875,-202.0034637451172,-210.28184509277344,-343.5087890625,124.91361236572266,283.49078369140625,143.0421142578125,-484.3351745605469
313278.6493581556,217.29122924804688,-199.93861389160156,-208.1945037841797,-341.36651611328125,126.8031005859375,285.48321533203125,145.0714874267578,-482.27984619140625
313278.6533581556,218.3823699951172,-198.9593963623047,-207.22879028320312,-340.3228454589844,127.8582534790039,286.6247863769531,146.18809509277344,-481.3455810546875
313278.65735815564,217.33920288085938,-200.05950927734375,-208.3678741455078,-341.4769287109375,126.84406280517578,285.60211181640625,145.24534606933594,-482.4701843261719
313278.6613581556,215.68052673339844,-201.82510375976562,-210.1124725341797,-343.2640075683594,125.36174774169922,284.14178466796875,143.5991668701172,-484.2023010253906
313278.6653581556,215.37477111816406,-202.24977111816406,-210.41973876953125,-343.5982360839844,125.00703430175781,283.84600830078125,143.21946716308594,-484.583984375
313278.66935815563,217.60748291015625,-199.9705810546875,-208.2319793701172,-341.3545227050781,126.94098663330078,285.8159484863281,145.26983642578125,-482.49017333984375
313278.6733581556,218.63516235351562,-198.96688842773438,-207.2187957763672,-340.3303527832031,127.98815155029297,286.85009765625,146.29051208496094,-481.4769592285156
313278.6773581556,217.76136779785156,-199.77874755859375,-208.09458923339844,-341.2246398925781,127.24174499511719,286.10870361328125,145.57159423828125,-482.3147888183594
313278.6813581556,215.74147033691406,-201.85157775878906,-210.13246154785156,-343.3514404296875,125.20687103271484,284.0168762207031,143.62564086914062,-484.2512512207031
313278.68535815564,215.59210205078125,-202.0908966064453,-210.298828125,-343.53228759765625,124.955078125,283.79705810546875,143.2824249267578,-484.5070495605469
313278.6893581556,217.5370330810547,-200.22837829589844,-208.3878631591797,-341.5273742675781,126.72016143798828,285.64208984375,145.06698608398438,-482.6875
313278.6933581556,218.4378204345703,-199.27613830566406,-207.44461059570312,-340.5761413574219,127.57048797607422,286.5003967285156,146.15162658691406,-481.64434814453125
313278.6973581556,217.59799194335938,-200.0275421142578,-208.23048400878906,-341.3785095214844,126.86505126953125,285.7519836425781,145.5066375732422,-482.2758483886719
313278.70135815564,215.7764434814453,-201.8256072998047,-210.04054260253906,-343.238525390625,125.10195922851562,283.87847900390625,143.74154663085938,-483.9869689941406
313278.7053581556,215.4462127685547,-202.26126098632812,-210.45370483398438,-343.76708984375,124.74624633789062,283.5087890625,143.25094604492188,-484.5345153808594
313278.7093581556,217.51605224609375,-200.26235961914062,-208.42283630371094,-341.6767578125,126.57927703857422,285.48419189453125,145.21388244628906,-482.6275634765625
313278.7133581556,218.5332489013672,-199.27964782714844,-207.39215087890625,-340.59912109375,127.39312744140625,286.2690734863281,146.36595153808594,-481.44049072265625
313278.71735815564,217.4056396484375,-200.15794372558594,-208.4378204345703,-341.7452087402344,126.46086883544922,285.2209167480469,145.47816467285156,-482.34027099609375
313278.7213581556,215.73348999023438,-201.78164672851562,-210.12147521972656,-343.40087890625,125.18189239501953,284.0433654785156,143.77352905273438,-484.05340576171875
313278.7253581556,215.49417114257812,-202.1438446044922,-210.40225219726562,-343.66119384765625,124.82318115234375,283.71661376953125,143.32089233398438,-484.4156188964844
313278.72935815563,217.45761108398438,-199.99307250976562,-208.3034210205078,-341.5623474121094,126.625244140625,285.4312438964844,145.22286987304688,-482.3247985839844
313278.73335815564,218.4972686767578,-198.8679656982422,-207.22628784179688,-340.4322509765625,127.80329895019531,286.62030029296875,146.3849334716797,-481.2396545410156
313278.7373581556,217.54502868652344,-199.81121826171875,-208.2429656982422,-341.38800048828125,127.05290222167969,285.76898193359375,145.48915100097656,-482.2228698730469
313278.7413581556,216.11917114257812,-201.4359130859375,-209.856689453125,-342.98773193359375,125.54010772705078,284.3261413574219,143.9364013671875,-483.7396545410156
313278.74535815563,215.8463897705078,-201.82211303710938,-210.12496948242188,-343.303955078125,125.05799102783203,283.9069519042969,143.4807586669922,-484.0813903808594
313278.74935815565,217.66844177246094,-200.06350708007812,-208.29393005371094,-341.43646240234375,126.5652847290039,285.3802795410156,145.22836303710938,-482.3497619628906
313278.7533581556,218.85498046875,-198.96139526367188,-207.21029663085938,-340.28338623046875,127.64592742919922,286.43145751953125,146.46287536621094,-481.2846374511719
313278.7573581556,217.85328674316406,-199.88265991210938,-208.19801330566406,-341.27508544921875,126.97595977783203,285.7629699707031,145.53211975097656,-482.22686767578125
313278.76135815564,216.30352783203125,-201.495361328125,-209.8102264404297,-342.915771484375,125.42120361328125,284.22869873046875,143.95037841796875,-483.74566650390625
313278.76535815565,216.03125,-201.9635009765625,-210.12896728515625,-343.2450256347656,124.96356964111328,283.8115539550781,143.49624633789062,-484.1103820800781
313278.76935815567,217.76785278320312,-200.158935546875,-208.27394104003906,-341.3735046386719,126.61774444580078,285.4332580566406,145.2438507080078,-482.2938232421875
313278.7733581556,218.56822204589844,-198.9179229736328,-207.29623413085938,-340.3927917480469,127.55799102783203,286.3065490722656,146.16761779785156,-481.2386779785156
313278.77735815564,217.6929168701172,-199.70230102539062,-208.10708618164062,-341.1431884765625,126.91500854492188,285.653564453125,145.4057159423828,-481.95758056640625
313278.78135815565,216.12167358398438,-201.505859375,-209.89414978027344,-342.9117736816406,125.24934387207031,283.9674072265625,143.70008850097656,-483.6827087402344
313278.78535815567,215.78843688964844,-202.02793884277344,-210.31881713867188,-343.37841796875,124.81118774414062,283.5447692871094,143.1070556640625,-484.29620361328125
313278.7893581556,217.73837280273438,-200.0745086669922,-208.2784423828125,-341.3355407714844,126.6642074584961,285.4482421875,144.99655151367188,-482.4322204589844
313278.79335815564,218.7595672607422,-199.00436401367188,-207.27474975585938,-340.3523254394531,127.78331756591797,286.6028137207031,146.2100830078125,-481.4230041503906
313278.79735815566,217.6064910888672,-200.0869903564453,-208.48876953125,-341.63629150390625,126.87004852294922,285.6380920410156,145.2543487548828,-482.57208251953125
313278.8013581557,215.78643798828125,-201.85308837890625,-210.27484130859375,-343.3938903808594,125.17190551757812,283.9624328613281,143.44679260253906,-484.25823974609375
313278.80535815563,215.60159301757812,-202.05792236328125,-210.40724182128906,-343.497802734375,124.81568908691406,283.54974365234375,143.07708740234375,-484.3406982421875
313278.80935815565,217.4376220703125,-200.137451171875,-208.44680786132812,-341.4669494628906,126.57178497314453,285.3458251953125,144.92210388183594,-482.4566955566406
313278.81335815566,218.3823699951172,-199.28663635253906,-207.54953002929688,-340.5621643066406,127.45357513427734,286.1856384277344,146.0811767578125,-481.5334167480469
313278.8173581557,217.36367797851562,-200.1319580078125,-208.62615966796875,-341.7372131347656,126.47435760498047,284.98809814453125,145.21986389160156,-482.4681701660156
313278.82135815563,215.84939575195312,-201.70970153808594,-210.37527465820312,-343.54278564453125,125.18639373779297,283.8450012207031,143.59466552734375,-484.2657470703125
313278.82535815565,215.5845947265625,-202.2727508544922,-210.79592895507812,-343.9944152832031,124.75223541259766,283.55975341796875,143.06459045410156,-484.8477783203125
313278.82935815566,217.62896728515625,-200.288330078125,-208.70860290527344,-341.92706298828125,126.5617904663086,285.4582214355469,145.07798767089844,-482.9143371582031
313278.8333581557,218.68812561035156,-199.0578155517578,-207.51754760742188,-340.7260437011719,127.89572143554688,286.7471923828125,146.27603149414062,-481.7407531738281
313278.83735815564,217.93272399902344,-199.8321990966797,-208.34239196777344,-341.55987548828125,127.315185546875,286.1326904296875,145.5830841064453,-482.5406188964844
313278.84135815565,216.35198974609375,-201.72218322753906,-210.16893005371094,-343.3344421386719,125.56008911132812,284.3770751953125,143.8070068359375,-484.3421936035156
313278.84535815567,216.10618591308594,-202.26126098632812,-210.5146484375,-343.648681640625,125.06798553466797,283.9569396972656,143.28591918945312,-484.82379150390625
313278.8493581556,218.0216522216797,-200.25636291503906,-208.4597930908203,-341.5513610839844,126.90751647949219,285.7864685058594,145.17840576171875,-482.8758544921875
313278.85335815564,218.91293334960938,-199.04832458496094,-207.40464782714844,-340.4512634277344,128.0281219482422,286.93603515625,146.2285614013672,-481.7972106933594
313278.85735815566,217.81881713867188,-199.94810485839844,-208.3968505859375,-341.3764953613281,127.12883758544922,286.0207824707031,145.2748260498047,-482.6755065917969
313278.8613581557,216.00926208496094,-201.91903686523438,-210.37127685546875,-343.3289489746094,125.16790771484375,284.03436279296875,143.3543701171875,-484.5445251464844
313278.8653581556,215.6295623779297,-202.4486083984375,-210.82791137695312,-343.8170471191406,124.56039428710938,283.40887451171875,142.72686767578125,-485.1070556640625
313278.86935815564,217.3192138671875,-200.41073608398438,-208.82101440429688,-341.84014892578125,126.4648666381836,285.286376953125,144.5324249267578,-483.1516418457031
313278.8733581556,218.38986206054688,-199.38555908203125,-207.8148193359375,-340.7375183105469,127.46856689453125,286.2311096191406,145.68499755859375,-482.11895751953125
313278.8773581556,217.3766632080078,-200.36976623535156,-208.92242431640625,-341.816162109375,126.5293197631836,285.1989440917969,144.72377014160156,-483.0911865234375
313278.88135815563,215.74847412109375,-201.91152954101562,-210.57211303710938,-343.476318359375,125.14292907714844,283.8170471191406,142.99964904785156,-484.6494445800781
313278.88535815565,215.4207305908203,-202.4086456298828,-210.96778869628906,-343.87249755859375,124.7547378540039,283.6022033691406,142.45008850097656,-485.20050048828125
313278.88935815566,217.2547607421875,-200.5181427001953,-209.02484130859375,-341.8910827636719,126.54080963134766,285.4212646484375,144.3375701904297,-483.36895751953125
313278.8933581556,218.23797607421875,-199.52743530273438,-208.003662109375,-340.8194580078125,127.54051208496094,286.43695068359375,145.4666748046875,-482.2763366699219
313278.89735815563,217.25326538085938,-200.41473388671875,-209.01385498046875,-341.88958740234375,126.62324523925781,285.4332580566406,144.63983154296875,-483.1331481933594
313278.90135815565,215.54713439941406,-202.17982482910156,-210.92283630371094,-343.7651062011719,124.81718444824219,283.7041320800781,142.82627868652344,-485.00665283203125
313278.90535815567,215.3118133544922,-202.65493774414062,-211.1986083984375,-344.0728454589844,124.27012634277344,283.0721435546875,142.39512634277344,-485.3443908691406
313278.9093581556,217.34368896484375,-200.60157775878906,-209.04232788085938,-341.81866455078125,126.31848907470703,285.21490478515625,144.3115997314453,-483.3164978027344
313278.91335815564,218.38436889648438,-199.43252563476562,-207.93821716308594,-340.6805725097656,127.49954223632812,286.4204406738281,145.4631805419922,-482.180419921875
313278.91735815565,217.64395141601562,-200.15594482421875,-208.7610626220703,-341.5808410644531,126.81159210205078,285.6056213378906,144.86915588378906,-482.957275390625
313278.92135815567,216.09368896484375,-201.8740692138672,-210.46469116210938,-343.3519287109375,125.25933074951172,284.0493469238281,143.2684326171875,-484.69439697265625
313278.9253581556,215.59759521484375,-202.49107360839844,-210.9418182373047,-343.8905029296875,124.69728088378906,283.5692443847656,142.63693237304688,-485.3074035644531
313278.92935815564,217.63546752929688,-200.5491180419922,-208.90245056152344,-341.86962890625,126.50533294677734,285.3907775878906,144.62234497070312,-483.38543701171875
313278.93335815566,218.9279327392578,-199.3201141357422,-207.61497497558594,-340.6086120605469,127.7613296508789,286.61480712890625,145.98875427246094,-482.1484375
313278.9373581557,218.1415557861328,-200.10447692871094,-208.41932678222656,-341.46295166015625,127.06539154052734,285.8918762207031,145.36875915527344,-482.8588562011719
313278.94135815563,216.667236328125,-201.6047821044922,-210.06752014160156,-343.1251220703125,125.52661895751953,284.2721862792969,143.8429718017578,-484.4066162109375
313278.94535815564,216.4823760986328,-201.8955535888672,-210.35328674316406,-343.4768371582031,125.16490936279297,283.9114685058594,143.4213104248047,-484.8168029785156
313278.94935815566,218.4073486328125,-200.03453063964844,-208.4542999267578,-341.5938415527344,126.86804962158203,285.6735534667969,145.24285888671875,-483.0332336425781
313278.9533581557,219.07081604003906,-199.2481689453125,-207.7253875732422,-340.8414306640625,127.70537567138672,286.58233642578125,146.0616912841797,-482.2193908691406
313278.95735815563,218.0646209716797,-200.03652954101562,-208.5836944580078,-341.6637878417969,126.9324951171875,285.69354248046875,145.26283264160156,-482.8498840332031
313278.96135815565,216.57131958007812,-201.55831909179688,-210.2503662109375,-343.2914733886719,125.4087142944336,284.1807556152344,143.69558715820312,-484.3756408691406
313278.96535815566,216.21759033203125,-202.04942321777344,-210.72149658203125,-343.7256164550781,124.91561126708984,283.7226257324219,143.17001342773438,-484.8657531738281
313278.9693581556,218.11158752441406,-200.180419921875,-208.8260040283203,-341.7801818847656,126.68219757080078,285.5276794433594,145.01553344726562,-483.07568359375
313278.97335815564,218.97189331054688,-199.33609008789062,-207.97918701171875,-340.8534240722656,127.57247924804688,286.4229431152344,146.02073669433594,-482.1604309082031
313278.97735815565,218.1075897216797,-200.00155639648438,-208.8894500732422,-341.73223876953125,126.87254333496094,285.6600646972656,145.25283813476562,-482.9617919921875
313278.98135815567,216.3150177001953,-201.94900512695312,-210.80592346191406,-343.6307067871094,125.0035400390625,283.7775573730469,143.46926879882812,-484.8052978515625
313278.9853581556,215.97479248046875,-202.47308349609375,-211.17462158203125,-343.9809265136719,124.48844909667969,283.3199462890625,142.97067260742188,-485.2229919433594
313278.98935815564,218.07110595703125,-200.23338317871094,-208.94142150878906,-341.7502136230469,126.55130004882812,285.4397277832031,145.07449340820312,-482.99127197265625
313278.9933581556,218.94241333007812,-199.20970153808594,-207.8977508544922,-340.7510070800781,127.52102661132812,286.385498046875,146.12315368652344,-481.86767578125
313278.9973581556,217.982177734375,-200.25186157226562,-208.95590209960938,-341.8901062011719,126.5597915649414,285.36480712890625,145.2758331298828,-482.90533447265625
313279.0013581556,216.22708129882812,-202.1828155517578,-210.75546264648438,-343.79608154296875,124.86914825439453,283.714111328125,143.56019592285156,-484.755859375
313279.00535815564,216.0457305908203,-202.46859741210938,-210.9053497314453,-343.9759216308594,124.61334991455078,283.5267639160156,143.2014923095703,-485.0101623535156
313279.0093581556,217.88975524902344,-200.27784729003906,-208.7635498046875,-341.87811279296875,126.45088195800781,285.31982421875,145.06199645996094,-482.79791259765625
313279.0133581556,218.92044067382812,-198.962890625,-207.59698486328125,-340.7235412597656,127.51252746582031,286.2525939941406,146.22805786132812,-481.54193115234375
313279.01735815563,218.11358642578125,-199.66433715820312,-208.380859375,-341.6188049316406,126.80010223388672,285.3713073730469,145.590576171875,-482.2823181152344
313279.0213581556,216.3260040283203,-201.62576293945312,-210.21640014648438,-343.5957336425781,124.97056579589844,283.46331787109375,143.8364715576172,-484.0823974609375
313279.0253581556,216.30552673339844,-201.66473388671875,-210.1824188232422,-343.572265625,124.81918334960938,283.3219299316406,143.6371307373047,-484.0299377441406
313279.0293581556,218.4578094482422,-199.5789031982422,-207.9766845703125,-341.1706848144531,126.72016143798828,285.29486083984375,145.61305236816406,-481.9076232910156
313279.03335815563,219.5854034423828,-198.4747772216797,-206.78863525390625,-339.87420654296875,127.77281951904297,286.32403564453125,146.86305236816406,-480.63665771484375
313279.0373581556,218.5117645263672,-199.5284423828125,-207.8043212890625,-340.8079528808594,126.84556579589844,285.3722839355469,145.913818359375,-481.6293640136719
313279.0413581556,216.68722534179688,-201.4144287109375,-209.7133026123047,-342.69696044921875,125.10045623779297,283.562744140625,144.0313262939453,-483.5103454589844
313279.0453581556,216.2850341796875,-201.68421936035156,-210.12796020507812,-343.1895446777344,124.75074005126953,283.2460021972656,143.46627807617188,-484.055419921875
313279.04935815564,218.45230102539062,-199.44351196289062,-207.9891815185547,-341.0477600097656,126.78311157226562,285.3553161621094,145.5061492919922,-482.029541015625
313279.0533581556,219.42503356933594,-198.63265991210938,-207.0604248046875,-339.9991149902344,127.52202606201172,286.02777099609375,146.53431701660156,-480.9269104003906
313279.0573581556,217.87576293945312,-200.2104034423828,-208.4593048095703,-341.2945861816406,126.07767486572266,284.467529296875,145.18190002441406,-482.1154479980469
313279.0613581556,215.8513946533203,-202.13885498046875,-210.40625,-343.1300964355469,124.2051773071289,282.60101318359375,143.2284698486328,-483.9330139160156
313279.06535815564,215.6705322265625,-201.8645782470703,-210.5736083984375,-343.4308776855469,124.05130004882812,282.3936767578125,142.93869018554688,-484.0069580078125
313279.0693581556,217.99267578125,-199.67681884765625,-208.4418182373047,-341.3974914550781,126.33447265625,284.84271240234375,145.16790771484375,-482.14093017578125
313279.0733581556,218.94041442871094,-199.05282592773438,-207.55502319335938,-340.4757385253906,127.39412689208984,285.9478454589844,146.2620391845703,-481.383056640625
313279.0773581556,218.1060791015625,-199.8162078857422,-208.3838653564453,-341.33355712890625,126.94248962402344,285.5176696777344,145.59707641601562,-482.1609191894531
313279.08135815564,216.04522705078125,-201.67222595214844,-210.44320678710938,-343.5122985839844,125.08097839355469,283.5027770996094,143.5272216796875,-484.06689453125
313279.0853581556,215.8998565673828,-202.02044677734375,-210.6400604248047,-343.69464111328125,124.64832305908203,283.05316162109375,143.27842712402344,-484.3201904296875
313279.0893581556,217.99717712402344,-200.0380401611328,-208.55972290039062,-341.54437255859375,126.47335815429688,285.0975036621094,145.3127899169922,-482.3352966308594
313279.09335815563,218.9229278564453,-199.21868896484375,-207.57701110839844,-340.4412536621094,127.43608856201172,286.1326904296875,146.35995483398438,-481.2821350097656
313279.0973581556,217.6604461669922,-200.57659912109375,-208.76905822753906,-341.482421875,126.30998992919922,285.0060729980469,145.1833953857422,-482.3407897949219
313279.1013581556,215.85787963867188,-201.69920349121094,-210.3582763671875,-343.1251220703125,124.88463592529297,283.4023742675781,143.41481018066406,-483.7666320800781
313279.1053581556,215.44322204589844,-202.42762756347656,-210.83140563964844,-343.4558410644531,124.28761291503906,282.8263244628906,142.7548370361328,-484.30621337890625
313279.10935815563,217.90374755859375,-199.727783203125,-208.20401000976562,-340.7455139160156,126.62024688720703,285.15496826171875,145.16590881347656,-481.69580078125
313279.1133581556,218.800537109375,-198.4368133544922,-207.13136291503906,-339.6928405761719,127.64192962646484,286.08123779296875,146.17660522460938,-480.49127197265625
313279.1173581556,217.74937438964844,-199.42152404785156,-208.15403747558594,-340.7245178222656,126.58927154541016,284.899169921875,145.22537231445312,-481.2861328125
313279.12135815556,215.89434814453125,-201.14364624023438,-209.965087890625,-342.5655517578125,124.7872085571289,283.00567626953125,143.31239318847656,-482.8798522949219
313279.1253581556,215.46319580078125,-201.7431640625,-210.39974975585938,-342.8948059082031,124.2536392211914,282.51708984375,142.67539978027344,-483.4913635253906
313279.1293581556,217.5755157470703,-200.09848022460938,-208.48727416992188,-340.8619079589844,125.98475646972656,284.3341369628906,144.6873016357422,-481.8302001953125
313279.1333581556,218.68612670898438,-198.78204345703125,-207.2847442626953,-339.7003479003906,127.09736633300781,285.31634521484375,145.9063262939453,-480.4627990722656
313279.1373581556,217.71090698242188,-199.4959716796875,-208.14854431152344,-340.55267333984375,126.26852416992188,284.3326110839844,144.99305725097656,-481.11627197265625
313279.1413581556,215.88885498046875,-201.4144287109375,-210.12547302246094,-342.55206298828125,124.45996856689453,282.49310302734375,143.18499755859375,-483.0482177734375
313279.1453581556,215.71849060058594,-201.6222686767578,-210.3363037109375,-342.7503967285156,124.2126693725586,282.3332214355469,142.92271423339844,-483.3464660644531
313279.1493581556,217.8128204345703,-199.36756896972656,-208.11956787109375,-340.4847106933594,126.12564086914062,284.296142578125,145.07098388671875,-481.18072509765625
313279.1533581556,218.86297607421875,-198.52224731445312,-207.162841796875,-339.4960021972656,127.07038116455078,285.27587890625,146.28701782226562,-480.21697998046875
313279.1573581556,217.6349639892578,-199.89215087890625,-208.5152587890625,-340.9488525390625,126.02122497558594,284.273681640625,145.16941833496094,-481.5723876953125
313279.1613581556,215.86488342285156,-201.76914978027344,-210.49667358398438,-343.110107421875,124.2591323852539,282.39068603515625,143.30239868164062,-483.4828796386719
313279.1653581556,215.37376403808594,-202.4376220703125,-211.08470153808594,-343.79107666015625,123.619140625,281.6842346191406,142.7168731689453,-484.2397766113281
313279.16935815563,217.94970703125,-199.96359252929688,-208.50225830078125,-341.126220703125,126.39093017578125,284.71630859375,145.19789123535156,-481.94659423828125
313279.1733581556,219.24867248535156,-198.27593994140625,-207.02793884277344,-339.72283935546875,128.2114715576172,286.580322265625,146.6122589111328,-480.5007629394531
313279.1773581556,218.23248291015625,-199.4964599609375,-208.1145782470703,-340.86492919921875,127.20427703857422,285.5011901855469,145.72047424316406,-481.53192138671875
313279.1813581556,216.32000732421875,-201.5668182373047,-210.20240783691406,-343.0436706542969,125.17290496826172,283.3853759765625,143.72206115722656,-483.6042785644531
313279.18535815564,216.04623413085938,-202.22178649902344,-210.55862426757812,-343.3499450683594,124.82168579101562,283.271484375,143.30039978027344,-484.130859375
313279.1893581556,218.36936950683594,-199.61187744140625,-208.12705993652344,-340.89788818359375,127.04940032958984,285.459716796875,145.6750030517578,-481.8801574707031
313279.1933581556,219.58990478515625,-198.17701721191406,-206.8126220703125,-339.6404113769531,128.31639099121094,286.5488586425781,147.04391479492188,-480.49676513671875
313279.1973581556,218.37387084960938,-199.51695251464844,-208.11207580566406,-340.9918212890625,126.97895812988281,285.0975036621094,145.91781616210938,-481.5683898925781
313279.20135815564,216.32200622558594,-201.5942840576172,-210.25137329101562,-343.17205810546875,124.94258880615234,283.1141052246094,143.7780303955078,-483.5997619628906
313279.2053581556,215.77244567871094,-202.3946533203125,-210.8019256591797,-343.5422668457031,124.31259155273438,282.80035400390625,143.07708740234375,-484.3306884765625
313279.2093581556,218.47479248046875,-199.46849060058594,-208.04913330078125,-340.6590881347656,127.13483428955078,285.85589599609375,145.7384490966797,-481.78521728515625
313279.2133581556,220.02305603027344,-198.0701141357422,-206.65174865722656,-339.26019287109375,128.64462280273438,287.34222412109375,147.26673889160156,-480.4632873535156
313279.21735815564,218.3678741455078,-199.9326171875,-208.3938446044922,-341.0467834472656,126.95098114013672,285.5546569824219,145.6840057373047,-482.16192626953125
313279.2213581556,216.03424072265625,-202.31321716308594,-210.83689880371094,-343.5672607421875,124.3775405883789,282.8717956542969,143.35736083984375,-484.3691711425781
313279.2253581556,216.02774047851562,-202.087890625,-210.72998046875,-343.4958190917969,124.70527648925781,283.4013671875,143.21298217773438,-484.443603515625
313279.22935815563,218.48428344726562,-199.50196838378906,-208.13156127929688,-340.9103698730469,127.2677230834961,285.89788818359375,145.6949920654297,-482.00006103515625
313279.23335815564,219.6898193359375,-198.22198486328125,-206.89804077148438,-339.67437744140625,128.36184692382812,286.78814697265625,146.99295043945312,-480.6336364746094
313279.2373581556,218.4418182373047,-199.64535522460938,-208.09408569335938,-340.8069763183594,126.83257293701172,285.1649475097656,145.8348846435547,-481.5788879394531
313279.2413581556,216.2975311279297,-202.05691528320312,-210.30482482910156,-343.0461730957031,124.53241729736328,282.9337463378906,143.56419372558594,-483.70318603515625
313279.24535815563,215.8354034423828,-202.00645446777344,-210.57611083984375,-343.42236328125,124.62284088134766,283.0501403808594,143.06759643554688,-484.1463317871094
313279.2493581556,218.65914916992188,-198.89195251464844,-207.55702209472656,-340.350830078125,127.44508361816406,285.9183654785156,145.99176025390625,-481.1587219238281
313279.2533581556,219.7997283935547,-198.02914428710938,-206.52435302734375,-339.3316345214844,128.31689453125,286.7566833496094,147.2102813720703,-480.1020812988281
313279.2573581556,218.60568237304688,-199.43801879882812,-207.9661865234375,-340.92987060546875,127.02042388916016,285.35980224609375,146.0182342529297,-481.6043701171875
313279.26135815564,216.5738067626953,-201.62876892089844,-210.10748291015625,-343.1351013183594,125.02452087402344,283.3564147949219,143.88394165039062,-483.7526550292969
313279.2653581556,216.11117553710938,-201.97947692871094,-210.45370483398438,-343.5238037109375,124.57088470458984,282.85931396484375,143.4033203125,-484.1083679199219
313279.2693581556,218.3408966064453,-199.76625061035156,-208.19601440429688,-341.278076171875,126.61674499511719,284.99908447265625,145.74444580078125,-482.0899963378906
313279.27335815557,219.74078369140625,-198.39584350585938,-206.85508728027344,-340.0290832519531,128.3228759765625,286.8126525878906,147.20278930664062,-480.9039306640625
313279.2773581556,218.800537109375,-199.61886596679688,-208.03463745117188,-341.3035583496094,127.55998992919922,286.13818359375,146.17910766601562,-482.17791748046875
313279.2813581556,216.5563201904297,-202.30372619628906,-210.52114868164062,-343.8000793457031,125.40271759033203,284.06085205078125,143.80050659179688,-484.78533935546875
313279.2853581556,215.9917755126953,-202.7104034423828,-210.95230102539062,-344.2252197265625,124.79420471191406,283.4403381347656,143.2814178466797,-485.2124938964844
313279.28935815557,218.83700561523438,-199.39854431152344,-208.04063415527344,-341.3490295410156,127.49454498291016,286.2395935058594,146.18609619140625,-482.36627197265625
313279.2933581556,219.82720947265625,-198.80502319335938,-207.1823272705078,-340.43377685546875,128.36085510253906,287.3572082519531,147.19378662109375,-481.620361328125
313279.2973581556,218.1995086669922,-200.64305114746094,-208.84349060058594,-342.0554504394531,126.6317367553711,285.6545715332031,145.6260528564453,-483.14764404296875
313279.3013581556,216.0457305908203,-202.5350341796875,-210.9847869873047,-344.3181457519531,124.4100112915039,283.22552490234375,143.4547882080078,-484.9861755371094
313279.3053581556,215.57110595703125,-202.9731903076172,-211.36846923828125,-344.703857421875,124.03781127929688,282.92376708984375,142.95468139648438,-485.4622802734375
313279.3093581556,218.3428955078125,-200.0135498046875,-208.51925659179688,-341.77020263671875,126.84306335449219,285.90936279296875,145.698486328125,-482.806396484375
313279.3133581556,219.78173828125,-198.5477294921875,-207.08839416503906,-340.33233642578125,128.33438110351562,287.30426025390625,147.1728057861328,-481.3460693359375
313279.3173581556,218.4308319091797,-199.98208618164062,-208.46530151367188,-341.7561950683594,126.99644470214844,285.7914733886719,145.85536193847656,-482.55810546875
313279.3213581556,216.13516235351562,-202.173828125,-210.71249389648438,-344.0628662109375,124.86564636230469,283.5862121582031,143.5092315673828,-484.6369323730469
313279.3253581556,215.62156677246094,-202.59298706054688,-211.08619689941406,-344.40460205078125,124.27611541748047,282.9287414550781,143.00863647460938,-485.0091552734375
313279.3293581556,218.15304565429688,-200.21739196777344,-208.5337371826172,-341.7242431640625,126.61724853515625,285.2778625488281,145.55160522460938,-482.71099853515625
313279.3333581556,219.5749053955078,-198.7955322265625,-207.2457733154297,-340.41229248046875,128.17799377441406,286.8436279296875,146.9300079345703,-481.5399169921875
313279.3373581556,218.83900451660156,-199.41603088378906,-208.17303466796875,-341.4619445800781,127.64292907714844,286.192138671875,146.0592041015625,-482.46868896484375
313279.3413581556,216.451904296875,-202.162841796875,-210.76844787597656,-344.06634521484375,125.25283813476562,283.7315979003906,143.44679260253906,-485.1715087890625
313279.3453581556,215.70201110839844,-202.84478759765625,-211.2870330810547,-344.4940185546875,124.7117691040039,283.28546142578125,142.7273712158203,-485.8374938964844
313279.3493581556,218.2924346923828,-200.0170440673828,-208.55072021484375,-341.6377868652344,127.22376251220703,285.8294372558594,145.4057159423828,-483.0931701660156
313279.3533581556,219.6228790283203,-198.8734588623047,-207.36517333984375,-340.4577331542969,128.3148956298828,286.91357421875,146.76812744140625,-481.89013671875
313279.3573581556,218.63815307617188,-200.06150817871094,-208.53173828125,-341.7197265625,127.40711212158203,286.1162109375,145.7284698486328,-483.0766906738281
313279.3613581556,216.4069366455078,-202.7213897705078,-210.98428344726562,-344.2347106933594,125.09846496582031,283.8764953613281,143.39932250976562,-485.50274658203125
313279.3653581556,215.89035034179688,-202.76934814453125,-211.29403686523438,-344.5869445800781,124.61334991455078,283.3753967285156,143.01962280273438,-485.67962646484375
313279.3693581556,218.3234100341797,-199.9036407470703,-208.6106719970703,-341.8721008300781,127.06639099121094,285.8219299316406,145.64202880859375,-483.0277404785156
313279.3733581556,219.7222900390625,-198.99636840820312,-207.4181365966797,-340.609619140625,128.05160522460938,286.7586975097656,146.9624786376953,-481.9266052246094
313279.3773581556,218.51425170898438,-200.62257385253906,-208.8854522705078,-342.1593933105469,126.62823486328125,285.19842529296875,145.741455078125,-483.32049560546875
313279.38135815563,216.4049530029297,-202.57400512695312,-211.15963745117188,-344.58544921875,124.88463592529297,283.520263671875,143.44329833984375,-485.6386413574219
313279.38535815565,216.25506591796875,-202.723388671875,-211.24256896972656,-344.60394287109375,125.01802825927734,283.96441650390625,143.20848083496094,-485.94488525390625
313279.3893581556,218.391357421875,-200.3547821044922,-208.89295959472656,-342.2747802734375,127.2892074584961,286.17913818359375,145.59156799316406,-483.66522216796875
313279.3933581556,219.85618591308594,-199.059814453125,-207.57949829101562,-340.96533203125,128.58416748046875,287.45562744140625,147.06039428710938,-482.3138122558594
313279.39735815563,218.7545623779297,-200.42572021484375,-208.88145446777344,-342.26080322265625,127.42459869384766,286.3664855957031,145.84886169433594,-483.5942687988281
313279.40135815565,216.8365936279297,-202.4626007080078,-210.94131469726562,-344.3386535644531,125.5361099243164,284.54644775390625,143.76803588867188,-485.6336364746094
313279.4053581556,216.2305908203125,-202.8507843017578,-211.3744659423828,-344.80377197265625,124.97855377197266,283.81854248046875,143.1695098876953,-486.1662292480469
313279.4093581556,218.3828582763672,-200.54513549804688,-208.99737548828125,-342.3482360839844,127.07537841796875,285.8699035644531,145.51113891601562,-483.8780517578125
313279.41335815564,219.5624237060547,-199.36807250976562,-207.8183135986328,-341.0737609863281,128.33486938476562,287.13739013671875,146.69068908691406,-482.6370544433594
313279.41735815565,218.42982482910156,-200.79043579101562,-209.07431030273438,-342.2543029785156,127.16130828857422,286.00579833984375,145.45217895507812,-483.82110595703125
313279.4213581556,216.54234313964844,-202.60098266601562,-211.0872039794922,-344.27020263671875,125.23884582519531,284.2162170410156,143.36685180664062,-485.7760314941406
313279.4253581556,216.16763305664062,-202.95269775390625,-211.34849548339844,-344.4600524902344,124.85466003417969,283.8744812011719,143.037109375,-486.1292419433594
313279.42935815564,218.4917755126953,-200.29083251953125,-208.80152893066406,-341.9205627441406,127.2297592163086,286.2181091308594,145.5855712890625,-483.64923095703125
313279.43335815566,219.66983032226562,-199.3041229248047,-207.72837829589844,-340.82794189453125,128.16151428222656,287.183837890625,146.76763916015625,-482.4561767578125
313279.4373581556,218.43032836914062,-200.7279815673828,-209.01934814453125,-342.1598815917969,126.93798828125,285.9343566894531,145.50015258789062,-483.5558166503906
313279.44135815563,216.2815399169922,-202.85427856445312,-211.2850341796875,-344.5354919433594,124.69778442382812,283.498291015625,143.2579345703125,-485.66412353515625
313279.44535815564,215.74647521972656,-203.1470489501953,-211.69371032714844,-344.93316650390625,124.19068908691406,282.9692077636719,142.7803192138672,-486.1067810058594
313279.44935815566,218.11508178710938,-200.6710205078125,-209.22068786621094,-342.3672180175781,126.69268798828125,285.64508056640625,145.27333068847656,-483.7936096191406
313279.4533581556,219.52145385742188,-199.22268676757812,-207.89474487304688,-341.07275390625,128.3208770751953,287.3607177734375,146.6497344970703,-482.4971618652344
313279.45735815563,218.24497985839844,-200.70150756835938,-209.40554809570312,-342.678955078125,126.9744644165039,285.9927978515625,145.2943115234375,-483.9999694824219
313279.46135815565,216.0337371826172,-203.25845336914062,-211.7891387939453,-345.09454345703125,124.69328308105469,283.65765380859375,142.93020629882812,-486.3091125488281
313279.46535815566,215.4042510986328,-203.47877502441406,-212.06591796875,-345.33782958984375,124.3895263671875,283.3703918457031,142.40911865234375,-486.5813903808594
313279.4693581557,217.75436401367188,-200.52365112304688,-209.28314208984375,-342.4726257324219,126.9314956665039,285.9083557128906,145.03152465820312,-483.81658935546875
313279.47335815564,219.1802215576172,-199.21018981933594,-207.97718811035156,-341.0907287597656,128.2434539794922,287.1548767089844,146.32798767089844,-482.5416259765625
313279.47735815565,218.06112670898438,-200.5606231689453,-209.2676544189453,-342.34173583984375,127.04790496826172,285.8753967285156,145.030517578125,-483.71368408203125
313279.48135815567,215.89186096191406,-202.96218872070312,-211.57980346679688,-344.69134521484375,124.82518005371094,283.57623291015625,142.69288635253906,-485.9618835449219
313279.4853581557,215.330810546875,-203.32290649414062,-212.00247192382812,-345.1634826660156,124.45996856689453,283.21051025390625,142.24774169921875,-486.52044677734375
313279.48935815564,217.59999084472656,-200.99127197265625,-209.60438537597656,-342.6739807128906,126.67769622802734,285.4332580566406,144.76473999023438,-484.2187805175781
313279.49335815565,219.0628204345703,-199.7437744140625,-208.3503875732422,-341.4104919433594,127.8312759399414,286.5433654785156,146.2340545654297,-482.9447937011719
313279.49735815567,218.1835174560547,-200.90284729003906,-209.51795959472656,-342.60552978515625,126.91300964355469,285.87640380859375,145.07598876953125,-484.0978698730469
313279.5013581557,216.59030151367188,-202.78533935546875,-211.4464111328125,-344.63739013671875,125.36425018310547,284.435546875,143.20797729492188,-486.0972900390625
313279.50535815564,216.0817108154297,-203.2354736328125,-211.8341064453125,-345.028076171875,124.86415100097656,283.9549255371094,142.810302734375,-486.6518249511719
313279.50935815566,217.96270751953125,-201.3245086669922,-209.706298828125,-342.8198547363281,126.69768524169922,285.8853759765625,144.96307373046875,-484.6389465332031
313279.5133581557,219.66433715820312,-199.50746154785156,-208.00315856933594,-341.2091369628906,128.47926330566406,287.6269836425781,146.68919372558594,-482.91680908203125
313279.5173581557,218.78353881835938,-200.54263305664062,-209.11477661132812,-342.4306640625,127.49454498291016,286.5423583984375,145.64952087402344,-483.9709777832031
313279.52135815565,216.60379028320312,-203.3463897705078,-211.6277618408203,-344.97064208984375,125.1394271850586,284.2247009277344,143.23345947265625,-486.53094482421875
313279.52535815566,215.93832397460938,-203.2909393310547,-211.85159301757812,-345.2064514160156,124.92060089111328,283.9624328613281,142.7328643798828,-486.78521728515625
313279.5293581557,218.04913330078125,-200.75146484375,-209.3126220703125,-342.48162841796875,127.25873565673828,286.3949890136719,145.11795043945312,-484.36065673828125
313279.5333581557,219.3535919189453,-199.6113739013672,-208.10159301757812,-341.2291259765625,128.39132690429688,287.5380554199219,146.39292907714844,-483.1016845703125
313279.53735815565,218.14854431152344,-200.9188232421875,-209.4350128173828,-342.67596435546875,127.07837677001953,286.1471862792969,145.10296630859375,-484.1802978515625
313279.54135815566,215.75296020507812,-203.4597930908203,-211.8505859375,-345.2124328613281,124.70477294921875,283.7471008300781,142.61495971679688,-486.5029602050781
313279.5453581557,215.24636840820312,-203.65963745117188,-212.0749053955078,-345.44476318359375,124.37303924560547,283.34942626953125,142.20079040527344,-486.8022155761719
313279.54935815564,217.90774536132812,-201.1861114501953,-209.32659912109375,-342.5615539550781,126.88253784179688,285.8728942871094,145.03851318359375,-484.3081970214844
313279.55335815565,219.47598266601562,-199.4530029296875,-207.80032348632812,-341.1366882324219,128.43728637695312,287.313232421875,146.57528686523438,-482.73895263671875
313279.55735815567,218.54673767089844,-200.2698516845703,-208.8959503173828,-342.35772705078125,127.52102661132812,286.2665710449219,145.51963806152344,-483.61376953125
313279.5613581557,216.21409606933594,-202.7688446044922,-211.37696838378906,-344.9246826171875,125.1664047241211,283.8879699707031,143.04710388183594,-485.9364013671875
313279.56535815564,215.16943359375,-203.66912841796875,-212.16233825683594,-345.6321105957031,124.25963592529297,283.0276794433594,142.1373291015625,-486.7227783203125
313279.56935815566,217.51556396484375,-201.00726318359375,-209.55093383789062,-342.9037780761719,126.68319702148438,285.4547424316406,144.77471923828125,-484.22076416015625
313279.5733581556,219.4600067138672,-199.27264404296875,-207.8073272705078,-341.13720703125,128.37234497070312,287.1448669433594,146.65072631835938,-482.3977355957031
313279.5773581556,218.33689880371094,-200.61306762695312,-209.10427856445312,-342.4531555175781,127.13333129882812,285.890869140625,145.32827758789062,-483.5832824707031
313279.58135815564,215.7854461669922,-203.3453826904297,-211.74867248535156,-345.1150207519531,124.49844360351562,283.3424072265625,142.5714874267578,-486.146728515625
313279.58535815566,215.27835083007812,-203.72457885742188,-211.95350646972656,-345.2179260253906,124.11274719238281,283.08563232421875,142.2307586669922,-486.40704345703125
313279.5893581556,217.69390869140625,-200.85887145996094,-209.22119140625,-342.3811950683594,126.5767822265625,285.48870849609375,144.8921356201172,-483.711181640625
313279.59335815563,219.02435302734375,-199.28762817382812,-207.95420837402344,-341.2626037597656,127.9132080078125,286.7362060546875,146.23056030273438,-482.3712463378906
313279.59735815565,217.77134704589844,-200.90383911132812,-209.52793884277344,-342.98773193359375,126.53231811523438,285.1699523925781,144.83567810058594,-483.8715515136719
313279.60135815566,215.65554809570312,-203.63165283203125,-212.1013946533203,-345.5067138671875,124.12773895263672,282.7643737792969,142.3556671142578,-486.42950439453125
313279.6053581556,215.2848358154297,-203.79652404785156,-212.28125,-345.56317138671875,123.93489074707031,282.71942138671875,142.07089233398438,-486.7532653808594
313279.60935815563,217.96620178222656,-200.85438537597656,-209.32960510253906,-342.4306640625,126.60125732421875,285.54266357421875,144.92210388183594,-483.905517578125
313279.61335815565,219.28814697265625,-199.7257843017578,-208.18301391601562,-341.2735900878906,127.5834732055664,286.4898986816406,146.17910766601562,-482.66900634765625
313279.61735815566,218.55673217773438,-200.6220703125,-209.24317932128906,-342.3502197265625,126.95347595214844,285.9178466796875,145.1739044189453,-483.7441711425781
313279.6213581556,216.6437530517578,-202.92822265625,-211.47039794921875,-344.58843994140625,125.17889404296875,284.1967468261719,143.01913452148438,-486.0543212890625
313279.62535815564,216.020751953125,-203.6856231689453,-212.10787963867188,-345.1445007324219,124.16371154785156,283.0706481933594,142.51902770996094,-486.7647399902344
313279.62935815565,218.42233276367188,-201.02024841308594,-209.45950317382812,-342.2867736816406,126.9649658203125,286.1776428222656,145.09596252441406,-484.3861389160156
313279.63335815567,219.82470703125,-199.2841339111328,-207.9442138671875,-340.8753967285156,128.88992309570312,288.1056213378906,146.46836853027344,-482.87835693359375
313279.6373581557,218.57571411132812,-200.9473114013672,-209.43801879882812,-342.4481506347656,127.3246841430664,286.4384460449219,145.07598876953125,-484.2442626953125
313279.64135815564,216.3569793701172,-203.18601989746094,-211.76515197753906,-344.9746398925781,125.04800415039062,284.10931396484375,142.73135375976562,-486.3765563964844
313279.64535815566,215.7584686279297,-203.6631317138672,-212.14634704589844,-345.3463439941406,124.52191925048828,283.6101989746094,142.32717895507812,-486.9495849609375
313279.6493581557,218.00067138671875,-201.1146697998047,-209.64935302734375,-342.8093566894531,126.89402770996094,286.05426025390625,144.92161560058594,-484.5744934082031
313279.6533581557,219.4939727783203,-199.75326538085938,-208.40135192871094,-341.643798828125,128.1500244140625,287.26177978515625,146.27203369140625,-483.1271667480469
313279.65735815564,218.49127197265625,-200.8683624267578,-209.54342651367188,-342.8518371582031,127.0833740234375,286.1217041015625,145.14793395996094,-484.12335205078125
313279.66135815566,215.9852752685547,-203.42832946777344,-212.09140014648438,-345.48223876953125,124.57238006591797,283.56024169921875,142.5340118408203,-486.53192138671875
313279.6653581557,215.53964233398438,-203.930419921875,-212.35418701171875,-345.544189453125,124.05729675292969,283.0556335449219,142.12684631347656,-486.9111328125
313279.6693581557,217.85928344726562,-200.8753662109375,-209.60438537597656,-342.6529846191406,126.60575866699219,285.5706481933594,144.70278930664062,-484.1997985839844
313279.67335815565,219.06881713867188,-199.69830322265625,-208.52474975585938,-341.5558776855469,127.73735046386719,286.7676696777344,145.8728485107422,-483.0222473144531
313279.67735815566,218.21099853515625,-201.03773498535156,-209.7137908935547,-342.7489013671875,126.70417785644531,285.77996826171875,144.8381805419922,-484.16632080078125
313279.6813581557,216.1766357421875,-203.60418701171875,-212.07839965820312,-345.1080322265625,124.49694061279297,283.65118408203125,142.5754852294922,-486.49444580078125
313279.6853581557,215.73648071289062,-203.55023193359375,-212.2202911376953,-345.16448974609375,124.3150863647461,283.4103698730469,142.22976684570312,-486.716796875
313279.68935815565,217.98867797851562,-200.8234100341797,-209.6108856201172,-342.4616394042969,126.72515869140625,285.7380065917969,144.7157745361328,-484.2023010253906
313279.69335815567,219.29164123535156,-199.7732391357422,-208.466796875,-341.36053466796875,127.6544189453125,286.5653381347656,146.00973510742188,-482.9897766113281
313279.6973581557,218.07461547851562,-201.3634796142578,-209.9326171875,-342.9442443847656,126.0856704711914,284.845703125,144.67181396484375,-484.2872314453125
313279.7013581557,215.891357421875,-203.8205108642578,-212.2847442626953,-345.4032897949219,123.88043212890625,282.614501953125,142.29371643066406,-486.5834045410156
313279.70535815565,215.36976623535156,-203.90493774414062,-212.45310974121094,-345.52069091796875,123.61764526367188,282.5435485839844,141.88803100585938,-486.8072204589844
313279.70935815567,217.927734375,-201.05722045898438,-209.58839416503906,-342.4431457519531,126.31848907470703,285.5681457519531,144.60336303710938,-484.0818786621094
313279.7133581557,219.69931030273438,-199.2986297607422,-207.87725830078125,-340.803466796875,128.21197509765625,287.40765380859375,146.35096740722656,-482.33978271484375
313279.7173581557,218.5047607421875,-200.86038208007812,-209.30612182617188,-342.38470458984375,126.76263427734375,285.8194274902344,145.0594940185547,-483.7176818847656
313279.72135815566,215.98428344726562,-203.55821228027344,-211.9829864501953,-345.2059326171875,123.77851867675781,282.53057861328125,142.38963317871094,-486.1951904296875
313279.7253581557,215.50816345214844,-203.57220458984375,-212.05592346191406,-345.189453125,123.69408416748047,282.4331359863281,141.97946166992188,-486.3041076660156
313279.7293581557,218.02464294433594,-200.64955139160156,-209.14874267578125,-341.99749755859375,126.90501403808594,286.0857238769531,144.59486389160156,-483.60626220703125
313279.7333581557,219.4979705810547,-199.4495086669922,-207.8832550048828,-340.6690673828125,127.95667266845703,287.04095458984375,146.01373291015625,-482.21539306640625
313279.73735815566,218.56871032714844,-200.5126495361328,-209.0523223876953,-341.9120788574219,126.91900634765625,285.8968811035156,144.86715698242188,-483.3354797363281
313279.7413581557,216.5897979736328,-202.82180786132812,-211.28553771972656,-344.2152404785156,124.97705841064453,284.03936767578125,142.6239471435547,-485.629150390625
313279.7453581557,215.90634155273438,-203.2209930419922,-211.6587371826172,-344.6129150390625,124.45447540283203,283.4293518066406,142.16680908203125,-486.08477783203125
313279.7493581557,218.01266479492188,-200.73297119140625,-209.22218322753906,-342.1278991699219,126.6532211303711,285.545654296875,144.61285400390625,-483.7037048339844
313279.75335815566,219.3665771484375,-199.62387084960938,-208.07810974121094,-340.98681640625,127.79230499267578,286.7057189941406,145.91831970214844,-482.4816589355469
313279.7573581557,218.3289031982422,-200.66152954101562,-209.34909057617188,-342.37420654296875,126.75513458251953,285.59661865234375,144.64382934570312,-483.6886901855469
313279.7613581557,216.2815399169922,-202.9247283935547,-211.5323486328125,-344.61492919921875,124.71976470947266,283.5457458496094,142.37814331054688,-485.876953125
313279.7653581557,215.70750427246094,-203.25946044921875,-211.79063415527344,-344.8487243652344,124.32508087158203,283.1330871582031,142.00494384765625,-486.1991882324219
313279.7693581557,217.6014862060547,-201.1146697998047,-209.60838317871094,-342.5915222167969,126.31698608398438,285.0410461425781,144.29461669921875,-484.1323547363281
313279.7733581557,219.03533935546875,-199.792236328125,-208.4043426513672,-341.43896484375,127.455078125,286.0917053222656,145.67300415039062,-482.8373718261719
313279.7773581557,218.35238647460938,-200.8218994140625,-209.43701171875,-342.570556640625,126.46237182617188,285.20343017578125,144.79420471191406,-483.7631530761719
313279.7813581557,216.10269165039062,-203.20550537109375,-211.80712890625,-345.0865478515625,124.33207702636719,283.1550598144531,142.4171142578125,-486.0762939453125
313279.7853581557,215.26486206054688,-203.74057006835938,-212.26824951171875,-345.4622497558594,123.98784637451172,282.8393249511719,141.7096710205078,-486.6993103027344
313279.7893581557,217.29823303222656,-201.47438049316406,-209.9775848388672,-343.02020263671875,126.02422332763672,284.7877502441406,143.96337890625,-484.5630187988281
313279.7933581557,218.62217712402344,-200.42022705078125,-208.97088623046875,-341.97003173828125,127.12783813476562,285.8968811035156,145.08847045898438,-483.6047668457031
313279.7973581557,217.69342041015625,-201.49386596679688,-210.16293334960938,-343.3184509277344,125.89632415771484,284.5264587402344,143.9938507080078,-484.46807861328125
313279.80135815573,215.611083984375,-203.81251525878906,-212.43112182617188,-345.6365966796875,123.80899047851562,282.421142578125,141.7146759033203,-486.7102966308594
313279.8053581557,215.43472290039062,-203.58169555664062,-212.20530700683594,-345.21392822265625,124.19218444824219,283.089111328125,141.6162567138672,-486.6193542480469
313279.8093581557,217.61598205566406,-201.3674774169922,-209.77574157714844,-342.6085205078125,126.35245513916016,285.2348937988281,144.02133178710938,-484.3411865234375
313279.8133581557,218.8385009765625,-200.03353881835938,-208.779541015625,-341.6912536621094,127.30220031738281,286.0677490234375,145.14793395996094,-483.3135070800781
313279.81735815573,217.82131958007812,-201.4698944091797,-210.0800018310547,-342.9677429199219,126.14662170410156,285.20941162109375,143.90292358398438,-484.5495300292969
313279.8213581557,215.80442810058594,-203.7600555419922,-212.31422424316406,-345.23443603515625,124.11474609375,283.261474609375,141.65371704101562,-486.78173828125
313279.8253581557,215.2533721923828,-204.03134155273438,-212.637451171875,-345.5172119140625,123.82647705078125,282.9877014160156,141.1855926513672,-487.29632568359375
313279.8293581557,217.4266357421875,-201.602783203125,-210.26036071777344,-343.0291748046875,126.1396255493164,285.3293151855469,143.55569458007812,-485.13055419921875
313279.83335815574,218.4258270263672,-200.80091857910156,-209.4345245361328,-342.20684814453125,126.99394226074219,286.14666748046875,144.47247314453125,-484.32568359375
313279.8373581557,217.09939575195312,-202.23927307128906,-210.8893585205078,-343.78558349609375,125.58607482910156,284.59442138671875,142.9846649169922,-485.585693359375
313279.8413581557,215.39825439453125,-204.21719360351562,-212.8577880859375,-345.7919921875,123.57767486572266,282.39617919921875,140.96627807617188,-487.4841613769531
313279.8453581557,214.8551788330078,-204.4025421142578,-212.9142303466797,-345.7155456542969,123.35685729980469,282.19732666015625,140.58908081054688,-487.6290588378906
313279.84935815574,217.20880126953125,-201.67672729492188,-210.158447265625,-342.8353271484375,125.91481018066406,284.791748046875,143.2544403076172,-484.9881591796875
313279.8533581557,218.64865112304688,-200.32080078125,-208.8784637451172,-341.5948486328125,127.25973510742188,286.24810791015625,144.59536743164062,-483.6312561035156
313279.8573581557,217.66893005371094,-201.3404998779297,-209.98707580566406,-342.7424011230469,126.19957733154297,285.12750244140625,143.45079040527344,-484.530029296875
313279.86135815573,215.6890106201172,-203.5172576904297,-212.1288604736328,-344.9151916503906,124.00083923339844,282.7933654785156,141.30349731445312,-486.51544189453125
