lsl_time,C3,C4,CZ,CP3,CP4,CPZ,FC3,FC4
313232.975572907,187.96519470214844,-220.78744506835938,-214.1622314453125,-350.4057922363281,134.81419372558594,276.16815185546875,137.77882385253906,-491.7752380371094
313232.97957290703,189.67031860351562,-219.37057495117188,-212.55502319335938,-348.572265625,136.15762329101562,277.8148498535156,139.3815460205078,-490.32989501953125
313232.983572907,191.66873168945312,-217.4521026611328,-210.4906768798828,-346.3480224609375,138.0885772705078,279.7957458496094,141.45338439941406,-488.3749694824219
313232.987572907,191.66123962402344,-217.216796875,-210.42422485351562,-346.3035583496094,138.1265411376953,279.6793518066406,141.52333068847656,-488.1236572265625
313232.991572907,190.02154541015625,-218.9873809814453,-212.1288604736328,-348.1036376953125,136.5303192138672,277.9557189941406,139.85716247558594,-489.7518615722656
313232.995572907,188.54122924804688,-220.75796508789062,-213.83949279785156,-349.9231872558594,134.9315948486328,276.2945556640625,138.28091430664062,-491.5089416503906
313232.999572907,189.82220458984375,-219.68731689453125,-212.7178955078125,-348.6821594238281,136.14862060546875,277.8742980957031,139.4894561767578,-490.6881103515625
313233.003572907,191.8865509033203,-217.55552673339844,-210.65403747558594,-346.5428771972656,138.1735076904297,280.07403564453125,141.55979919433594,-488.74267578125
313233.007572907,191.65623474121094,-217.6834259033203,-210.80142211914062,-346.7317199707031,138.091064453125,279.8976745605469,141.3539581298828,-488.82708740234375
313233.01157290704,190.28982543945312,-219.0628204345703,-212.1758270263672,-348.1580810546875,136.94398498535156,278.73260498046875,139.91111755371094,-490.1590270996094
313233.015572907,188.55621337890625,-220.93032836914062,-213.93492126464844,-349.9851379394531,135.2213592529297,276.99298095703125,138.12554931640625,-491.87115478515625
313233.019572907,190.06350708007812,-219.43551635742188,-212.43312072753906,-348.4103698730469,136.51683044433594,278.3958740234375,139.6877899169922,-490.5112609863281
313233.023572907,192.3391876220703,-217.098388671875,-210.21240234375,-346.20263671875,138.71408081054688,280.5576477050781,142.02542114257812,-488.35296630859375
313233.02757290704,192.07040405273438,-217.56402587890625,-210.58360290527344,-346.6742858886719,138.414306640625,280.1859436035156,141.84107971191406,-488.6902160644531
313233.031572907,190.25335693359375,-219.4604949951172,-212.46859741210938,-348.670166015625,136.6662139892578,278.3139343261719,140.03701782226562,-490.5232238769531
313233.035572907,188.81851196289062,-220.67453002929688,-213.91244506835938,-350.1979675292969,135.27333068847656,276.882568359375,138.49925231933594,-491.9151306152344
313233.03957290703,190.21238708496094,-219.41903686523438,-212.55502319335938,-348.69964599609375,136.4174041748047,278.1895446777344,139.8491668701172,-490.6766052246094
313233.04357290705,192.1668243408203,-217.44061279296875,-210.5651092529297,-346.643310546875,138.20298767089844,279.9726257324219,141.89053344726562,-488.7071838378906
313233.047572907,191.89854431152344,-217.60049438476562,-210.7224884033203,-346.8056640625,138.26742553710938,280.09552001953125,141.668212890625,-488.8550720214844
313233.051572907,190.12196350097656,-219.31661987304688,-212.4411163330078,-348.58673095703125,136.7191619873047,278.4753112792969,139.88363647460938,-490.49127197265625
313233.05557290703,188.55621337890625,-221.02325439453125,-214.11827087402344,-350.32586669921875,135.3052978515625,277.0924072265625,138.23745727539062,-492.2148742675781
313233.05957290705,189.93511962890625,-219.94261169433594,-212.90274047851562,-348.91796875,136.4333953857422,278.4268493652344,139.51992797851562,-491.25067138671875
313233.063572907,192.1493377685547,-217.4251251220703,-210.63905334472656,-346.558349609375,138.57568359375,280.54266357421875,141.7596435546875,-488.9230041503906
313233.067572907,191.82859802246094,-217.82730102539062,-211.02474975585938,-347.0005187988281,138.29840087890625,280.27386474609375,141.4763641357422,-489.2677307128906
313233.07157290704,190.1609344482422,-219.74127197265625,-212.76785278320312,-348.8190612792969,136.560302734375,278.46533203125,139.80270385742188,-490.90045166015625
313233.07557290705,188.57620239257812,-221.3025360107422,-214.3236083984375,-350.47772216796875,134.95457458496094,276.6872253417969,138.17001342773438,-492.3817443847656
313233.079572907,190.02354431152344,-219.52444458007812,-212.6784210205078,-348.74310302734375,136.22357177734375,277.89227294921875,139.6263427734375,-490.6681213378906
313233.083572907,191.96798706054688,-217.44561767578125,-210.57859802246094,-346.4534606933594,138.0725860595703,279.9041748046875,141.59176635742188,-488.5403137207031
313233.08757290704,191.95999145507812,-217.32571411132812,-210.53164672851562,-346.43597412109375,138.2179718017578,279.931640625,141.6702117919922,-488.42791748046875
313233.091572907,190.245361328125,-218.97189331054688,-212.23777770996094,-348.23651123046875,136.7096710205078,278.2954406738281,139.97206115722656,-489.9886779785156
313233.095572907,188.45379638671875,-220.83790588378906,-214.06732177734375,-350.1734619140625,135.06549072265625,276.7037353515625,138.1090545654297,-491.8846435546875
313233.099572907,189.8986358642578,-219.49197387695312,-212.67042541503906,-348.626220703125,136.38143920898438,278.2674865722656,139.51893615722656,-490.68310546875
313233.10357290704,192.06390380859375,-217.28623962402344,-210.50267028808594,-346.46942138671875,138.44728088378906,280.31982421875,141.80010986328125,-488.5108337402344
313233.107572907,191.80860900878906,-217.7178955078125,-210.87486267089844,-346.9575500488281,138.14402770996094,280.006591796875,141.5982666015625,-488.9060363769531
313233.111572907,190.26284790039062,-219.37857055664062,-212.53054809570312,-348.6796569824219,136.8280792236328,278.7336120605469,139.95457458496094,-490.6006774902344
313233.115572907,188.76954650878906,-220.89434814453125,-214.03134155273438,-350.263916015625,135.38873291015625,277.1988220214844,138.36085510253906,-492.094482421875
313233.119572907,189.9810791015625,-219.7672576904297,-212.81581115722656,-348.9774169921875,136.3699493408203,278.1440734863281,139.58238220214844,-490.9793701171875
313233.123572907,191.9190216064453,-217.6929168701172,-210.80142211914062,-346.89410400390625,138.32188415527344,280.1130065917969,141.59226989746094,-488.9729919433594
313233.127572907,191.5758056640625,-217.91073608398438,-211.08169555664062,-347.2328186035156,138.1535186767578,279.9586181640625,141.37493896484375,-489.142333984375
313233.131572907,189.98207092285156,-219.65284729003906,-212.7903289794922,-349.0373840332031,136.41990661621094,278.16754150390625,139.77622985839844,-490.7270812988281
313233.135572907,188.6431427001953,-220.9538116455078,-214.24118041992188,-350.55865478515625,135.0070343017578,276.70172119140625,138.27842712402344,-492.2553405761719
313233.139572907,189.88314819335938,-219.64585876464844,-212.95669555664062,-349.122802734375,136.3524627685547,278.24298095703125,139.47146606445312,-491.1317443847656
313233.143572907,191.7506561279297,-217.8073272705078,-211.0941925048828,-347.18585205078125,138.09556579589844,280.0515441894531,141.39793395996094,-489.2512512207031
313233.147572907,191.71868896484375,-217.99667358398438,-211.1771240234375,-347.3127746582031,138.0176239013672,279.98260498046875,141.4563751220703,-489.3161926269531
313233.151572907,190.07200622558594,-219.5499267578125,-212.766357421875,-349.0089111328125,136.56478881835938,278.4718017578125,139.81369018554688,-490.8824462890625
313233.155572907,188.6471405029297,-220.96780395507812,-214.20970153808594,-350.5116882324219,135.1898956298828,277.0374450683594,138.24844360351562,-492.267333984375
313233.159572907,190.02154541015625,-219.63885498046875,-212.8547821044922,-349.0848388671875,136.45587158203125,278.4078674316406,139.5509033203125,-491.0558166503906
313233.163572907,191.9295196533203,-217.7318878173828,-210.9722900390625,-347.11590576171875,138.32138061523438,280.330810546875,141.5088348388672,-489.20880126953125
313233.167572907,191.97947692871094,-217.71339416503906,-210.97079467773438,-347.12640380859375,138.37335205078125,280.31634521484375,141.61874389648438,-489.11785888671875
313233.17157290695,190.5446319580078,-219.27415466308594,-212.4880828857422,-348.6521911621094,136.90452575683594,278.83251953125,140.11944580078125,-490.5472106933594
313233.17557290697,188.8260040283203,-221.05172729492188,-214.20919799804688,-350.393310546875,135.09646606445312,276.9400329589844,138.3134002685547,-492.19091796875
313233.179572907,189.98707580566406,-219.79722595214844,-212.97268676757812,-348.9554443359375,136.1326446533203,278.0551452636719,139.4375,-491.00335693359375
313233.183572907,191.84707641601562,-217.90174865722656,-210.98927307128906,-346.8366394042969,138.03111267089844,280.03106689453125,141.36895751953125,-489.0628967285156
313233.18757290696,191.59678649902344,-218.15504455566406,-211.19061279296875,-347.05096435546875,137.8807373046875,279.8547058105469,141.21157836914062,-489.1673278808594
313233.191572907,190.3907470703125,-219.21820068359375,-212.37017822265625,-348.36492919921875,136.76962280273438,278.6366882324219,140.0360107421875,-490.2589416503906
313233.195572907,188.74107360839844,-220.86288452148438,-214.10877990722656,-350.2059326171875,135.16441345214844,276.9295349121094,138.2544403076172,-492.0500183105469
313233.199572907,190.0460205078125,-219.56642150878906,-212.8602752685547,-348.94146728515625,136.26052856445312,278.0716247558594,139.5833740234375,-490.85845947265625
313233.20357290696,191.9510040283203,-217.5380401611328,-210.81491088867188,-346.8066711425781,138.3298797607422,280.18243408203125,141.59426879882812,-488.8660583496094
313233.207572907,191.82260131835938,-217.6834259033203,-210.9043426513672,-346.9355773925781,138.1395263671875,279.82421875,141.5797882080078,-488.8390808105469
313233.211572907,190.41921997070312,-219.28164672851562,-212.38516235351562,-348.5517578125,136.61026000976562,278.261474609375,140.1884002685547,-490.20849609375
313233.215572907,189.01785278320312,-220.6670379638672,-213.69810485839844,-349.9256591796875,135.40521240234375,277.10888671875,138.70108032226562,-491.58538818359375
313233.21957290696,190.2538604736328,-219.20570373535156,-212.30172729492188,-348.4098815917969,136.5228271484375,278.3139343261719,139.91311645507812,-490.2989196777344
313233.223572907,192.2008056640625,-217.24227905273438,-210.32130432128906,-346.3225402832031,138.30589294433594,280.1299743652344,141.9020233154297,-488.3494873046875
313233.227572907,192.00546264648438,-217.4056396484375,-210.47369384765625,-346.53387451171875,138.1410369873047,279.941650390625,141.81210327148438,-488.3889465332031
313233.231572907,190.0695037841797,-219.37857055664062,-212.38465881347656,-348.5572509765625,136.4873504638672,278.3648986816406,139.9136199951172,-490.2824401855469
313233.23557290697,188.42782592773438,-221.18162536621094,-214.09230041503906,-350.318359375,134.85964965820312,276.6837463378906,138.19398498535156,-491.97308349609375
313233.239572907,190.05201721191406,-219.59539794921875,-212.55052185058594,-348.62371826171875,136.1671142578125,278.067138671875,139.77223205566406,-490.4707946777344
313233.243572907,192.07589721679688,-217.25576782226562,-210.40524291992188,-346.35601806640625,138.091064453125,279.99560546875,141.8890380859375,-488.2750244140625
313233.24757290696,191.89654541015625,-217.43711853027344,-210.52464294433594,-346.4894104003906,138.01113891601562,279.83172607421875,141.81109619140625,-488.3050231933594
313233.251572907,190.21739196777344,-219.1007843017578,-212.25326538085938,-348.37591552734375,136.5583038330078,278.1465759277344,140.1349334716797,-490.0381164550781
313233.255572907,188.5931854248047,-220.9288330078125,-214.02435302734375,-350.2469177246094,134.89163208007812,276.4444274902344,138.41131591796875,-491.8561706542969
313233.259572907,189.99606323242188,-219.4849853515625,-212.6769256591797,-348.8575134277344,136.1800994873047,277.81683349609375,139.75323486328125,-490.6246643066406
313233.26357290696,192.08738708496094,-217.292236328125,-210.51165771484375,-346.6488037109375,138.4547882080078,280.19293212890625,141.9090118408203,-488.56280517578125
313233.267572907,191.95899963378906,-217.34568786621094,-210.63555908203125,-346.84613037109375,138.45228576660156,280.05303955078125,141.9035186767578,-488.58978271484375
313233.27157290693,189.90463256835938,-219.3505859375,-212.6639404296875,-348.9514465332031,136.58277893066406,278.12957763671875,139.86465454101562,-490.5472106933594
313233.27557290695,188.29542541503906,-221.09568786621094,-214.36557006835938,-350.6575927734375,134.8651580810547,276.4444274902344,138.069091796875,-492.2298889160156
313233.27957290696,189.58888244628906,-219.64634704589844,-213.04513549804688,-349.3126525878906,136.086669921875,277.6969299316406,139.31259155273438,-490.90594482421875
313233.283572907,191.6817169189453,-217.3806610107422,-210.84988403320312,-347.0354919433594,138.1625213623047,279.8492126464844,141.55430603027344,-488.6797180175781
313233.28757290693,191.44090270996094,-217.74436950683594,-211.05372619628906,-347.2268371582031,137.8592529296875,279.5554504394531,141.4563751220703,-488.85955810546875
313233.29157290695,190.03402709960938,-219.34609985351562,-212.59249877929688,-348.8310546875,136.26953125,277.894775390625,139.9410858154297,-490.3448791503906
313233.29557290697,188.70809936523438,-220.59410095214844,-213.93092346191406,-350.24090576171875,135.05101013183594,276.6617736816406,138.4862518310547,-491.7507629394531
313233.299572907,189.96009826660156,-219.32261657714844,-212.68692016601562,-348.90899658203125,136.18409729003906,277.89178466796875,139.72926330566406,-490.6061706542969
313233.30357290694,191.90853881835938,-217.4595947265625,-210.740478515625,-346.79718017578125,138.00514221191406,279.91815185546875,141.72366333007812,-488.6587219238281
313233.30757290695,191.8650665283203,-217.57850646972656,-210.81491088867188,-346.903076171875,137.92120361328125,279.769287109375,141.7846221923828,-488.6622314453125
313233.31157290697,190.14344787597656,-219.17922973632812,-212.4990692138672,-348.7006530761719,136.4638671875,278.066650390625,140.09246826171875,-490.2429504394531
313233.315572907,188.5727081298828,-220.81141662597656,-214.14425659179688,-350.3628234863281,134.9031219482422,276.5658264160156,138.37684631347656,-491.8951416015625
313233.31957290694,189.87466430664062,-219.5299530029297,-212.87826538085938,-348.9919128417969,136.00523376464844,277.7608947753906,139.6028594970703,-490.7240905761719
313233.32357290696,191.76515197753906,-217.69790649414062,-210.97927856445312,-347.02947998046875,137.7763214111328,279.52996826171875,141.5892791748047,-488.905517578125
313233.327572907,191.7646484375,-217.48858642578125,-210.86837768554688,-346.9140930175781,138.16551208496094,280.0055847167969,141.6866912841797,-488.688720703125
313233.331572907,190.19140625,-219.1692352294922,-212.52105712890625,-348.615234375,136.6337432861328,278.4703063964844,140.094970703125,-490.27392578125
313233.33557290694,188.61117553710938,-220.9363250732422,-214.2027130126953,-350.3653259277344,134.99404907226562,276.752197265625,138.36984252929688,-492.09197998046875
313233.33957290696,189.82620239257812,-219.81321716308594,-213.0106658935547,-349.0368957519531,135.9517822265625,277.6969299316406,139.47296142578125,-491.038818359375
313233.343572907,191.8485870361328,-217.7263946533203,-210.9293212890625,-346.86962890625,137.80430603027344,279.6478576660156,141.60125732421875,-488.8420715332031
313233.34757290693,191.76315307617188,-217.64395141601562,-211.00027465820312,-346.99200439453125,137.88023376464844,279.7232971191406,141.59376525878906,-488.8710632324219
313233.35157290695,190.34178161621094,-218.9334259033203,-212.32371520996094,-348.44134521484375,136.7576446533203,278.5137634277344,140.19488525390625,-490.2044982910156
313233.35557290696,188.87196350097656,-220.39324951171875,-213.7555694580078,-349.9371643066406,135.25584411621094,276.838623046875,138.67559814453125,-491.5674133300781
313233.359572907,190.1754150390625,-219.253173828125,-212.51156616210938,-348.51080322265625,136.19308471679688,277.9147644042969,139.8846435546875,-490.4013366699219
313233.36357290694,191.96348571777344,-217.34219360351562,-210.65054321289062,-346.5408935546875,137.9342041015625,279.6853332519531,141.73365783691406,-488.5218505859375
313233.36757290695,191.66273498535156,-217.63046264648438,-210.9073486328125,-346.8341369628906,137.74185180664062,279.37060546875,141.52882385253906,-488.667724609375
313233.3715729069,189.9735870361328,-219.28514099121094,-212.49807739257812,-348.4493408203125,136.39743041992188,278.131591796875,139.86764526367188,-490.1990051269531
313233.3755729069,188.96588134765625,-220.54563903808594,-213.78004455566406,-349.7483215332031,135.2158660888672,276.99249267578125,138.59117126464844,-491.63934326171875
313233.3795729069,190.31980895996094,-219.3001251220703,-212.55552673339844,-348.4343566894531,136.2265625,278.0656433105469,139.85116577148438,-490.56219482421875
313233.3835729069,192.28224182128906,-217.3441925048828,-210.59109497070312,-346.39898681640625,138.0940704345703,279.8662109375,141.89453125,-488.6287536621094
313233.3875729069,192.13336181640625,-217.44711303710938,-210.74197387695312,-346.622802734375,138.18150329589844,279.8087463378906,141.819091796875,-488.7686462402344
313233.3915729069,190.39724731445312,-219.13975524902344,-212.40614318847656,-348.3669128417969,136.77113342285156,278.44134521484375,140.0679931640625,-490.42181396484375
313233.3955729069,188.8065185546875,-220.87037658691406,-214.01934814453125,-349.97662353515625,135.16641235351562,276.9075622558594,138.3403778076172,-492.0340270996094
313233.3995729069,189.9361114501953,-219.76475524902344,-212.9367218017578,-348.7666015625,135.99424743652344,277.90777587890625,139.3750457763672,-490.9793701171875
313233.4035729069,192.24676513671875,-217.10238647460938,-210.5596160888672,-346.4224853515625,138.3763427734375,280.3028564453125,141.74114990234375,-488.6202697753906
313233.40757290693,191.8995361328125,-217.4051513671875,-210.8828582763672,-346.86810302734375,138.21347045898438,280.0835266113281,141.5033416748047,-488.91802978515625
313233.4115729069,189.82969665527344,-219.58889770507812,-212.93922424316406,-349.0163879394531,136.16061401367188,277.9417419433594,139.51792907714844,-490.8534851074219
313233.4155729069,188.43980407714844,-220.97628784179688,-214.4170379638672,-350.5466613769531,134.60635375976562,276.3120422363281,138.00863647460938,-492.2958068847656
313233.4195729069,189.9541015625,-219.58740234375,-212.96319580078125,-348.8685302734375,135.8958282470703,277.8268127441406,139.3815460205078,-491.0043640136719
313233.42357290693,191.8920440673828,-217.61297607421875,-210.97679138183594,-346.7462158203125,137.7643280029297,279.71380615234375,141.3934326171875,-489.0164489746094
313233.4275729069,191.61627197265625,-217.8168182373047,-211.15614318847656,-346.9635314941406,137.72886657714844,279.6009216308594,141.2100830078125,-489.1148681640625
313233.4315729069,189.71778869628906,-219.57940673828125,-213.01864624023438,-348.820068359375,136.19259643554688,277.9981994628906,139.2386474609375,-490.9618835449219
313233.4355729069,188.00265502929688,-221.34799194335938,-214.7632598876953,-350.6201171875,134.4624786376953,276.16217041015625,137.45907592773438,-492.69549560546875
313233.43957290694,189.447509765625,-219.9775848388672,-213.36387634277344,-349.1153259277344,135.6949920654297,277.5995178222656,138.85545349121094,-491.3925476074219
313233.4435729069,191.57330322265625,-217.8492889404297,-211.3065185546875,-346.9715270996094,137.6359405517578,279.6363830566406,140.93629455566406,-489.38665771484375
313233.4475729069,190.98226928710938,-218.4073486328125,-211.8266143798828,-347.52960205078125,137.25323486328125,279.2037353515625,140.44818115234375,-489.8487854003906
313233.4515729069,189.17172241210938,-220.1674346923828,-213.5372314453125,-349.3171691894531,135.87783813476562,277.8078308105469,138.69259643554688,-491.48248291015625
313233.4555729069,187.56150817871094,-221.61827087402344,-215.14744567871094,-351.0612487792969,134.20118713378906,275.94232177734375,137.01443481445312,-493.021240234375
313233.4595729069,189.16073608398438,-220.10098266601562,-213.63916015625,-349.44256591796875,135.3087921142578,277.15887451171875,138.57618713378906,-491.577392578125
313233.4635729069,191.2765350341797,-218.07110595703125,-211.5308380126953,-347.23431396484375,137.3416748046875,279.425048828125,140.76942443847656,-489.5355224609375
313233.4675729069,191.22108459472656,-218.08859252929688,-211.56031799316406,-347.30078125,137.3416748046875,279.3371276855469,140.8298797607422,-489.4640808105469
313233.4715729069,189.16673278808594,-220.00906372070312,-213.48828125,-349.4015808105469,135.38623046875,277.0879211425781,138.87844848632812,-491.14923095703125
313233.4755729069,187.2957305908203,-221.96499633789062,-215.35328674316406,-351.3310546875,133.62864685058594,275.2763671875,136.92999267578125,-493.0302429199219
313233.47957290686,189.0083465576172,-220.2104034423828,-213.7115936279297,-349.596435546875,135.02003479003906,276.7586669921875,138.62513732910156,-491.4709777832031
313233.4835729069,191.25106811523438,-217.8797607421875,-211.429931640625,-347.3342590332031,137.2697296142578,279.1072998046875,140.9268035888672,-489.2292785644531
313233.4875729069,191.34597778320312,-217.83030700683594,-211.27854919433594,-347.1379089355469,137.59646606445312,279.6119079589844,141.03121948242188,-489.1368408203125
313233.4915729069,189.56341552734375,-219.5314483642578,-212.9477081298828,-348.9239807128906,136.09567260742188,278.0626525878906,139.2706298828125,-490.8135070800781
313233.49557290686,188.05111694335938,-221.0777130126953,-214.533447265625,-350.6001281738281,134.61184692382812,276.471923828125,137.6329345703125,-492.4227294921875
313233.4995729069,189.47348022460938,-219.94361877441406,-213.3214111328125,-349.2477111816406,135.6605224609375,277.63299560546875,138.8634490966797,-491.3680725097656
313233.5035729069,191.4144287109375,-218.11007690429688,-211.42343139648438,-347.2318115234375,137.46707153320312,279.4620056152344,140.86285400390625,-489.5030517578125
313233.5075729069,191.41893005371094,-217.9676971435547,-211.38046264648438,-347.1993408203125,137.57847595214844,279.3970642089844,140.98675537109375,-489.32818603515625
313233.51157290686,189.75225830078125,-219.38406372070312,-213.0551300048828,-348.9759216308594,136.20208740234375,277.96173095703125,139.36305236816406,-490.93841552734375
313233.5155729069,187.9102325439453,-221.4334259033203,-215.01605224609375,-351.0023193359375,134.4250030517578,276.2206115722656,137.3926239013672,-493.07171630859375
313233.5195729069,189.42501831054688,-220.14195251464844,-213.62466430664062,-349.48602294921875,135.5421142578125,277.4461364746094,138.77352905273438,-491.7807312011719
313233.5235729069,191.81710815429688,-217.68092346191406,-211.18711853027344,-346.9720458984375,137.93719482421875,280.0225830078125,141.20907592773438,-489.336181640625
313233.52757290687,191.6817169189453,-217.7073974609375,-211.23558044433594,-347.117919921875,137.9217071533203,279.9271545410156,141.2395477294922,-489.249267578125
313233.5315729069,189.82870483398438,-219.65234375,-213.08160400390625,-349.1173095703125,136.09567260742188,277.96173095703125,139.4090118408203,-491.0613098144531
313233.5355729069,188.1945037841797,-221.31752014160156,-214.684326171875,-350.79998779296875,134.4649658203125,276.1746520996094,137.71087646484375,-492.6820068359375
313233.5395729069,189.61985778808594,-219.9411163330078,-213.29342651367188,-349.2771911621094,135.63003540039062,277.35870361328125,139.04930114746094,-491.41351318359375
313233.54357290687,191.87606811523438,-217.61947631835938,-211.06521606445312,-346.9575500488281,137.84677124023438,279.6018981933594,141.32398986816406,-489.2567443847656
313233.5475729069,191.861572265625,-217.63845825195312,-211.0227508544922,-346.8855895996094,137.9541778564453,279.8841857910156,141.409912109375,-489.1143798828125
313233.5515729069,189.91262817382812,-219.46200561523438,-212.86477661132812,-348.8150634765625,136.17010498046875,277.9971923828125,139.53941345214844,-490.8210144042969
313233.55557290686,188.26344299316406,-221.14515686035156,-214.53993225097656,-350.566650390625,134.491455078125,276.278564453125,137.82728576660156,-492.374755859375
313233.5595729069,189.7422637939453,-219.79173278808594,-213.1380615234375,-349.0588684082031,135.6605224609375,277.5295715332031,139.2456512451172,-491.02783203125
313233.5635729069,192.0159454345703,-217.4031524658203,-210.8968505859375,-346.74920654296875,137.95468139648438,279.8417053222656,141.5248260498047,-488.88055419921875
313233.5675729069,191.88055419921875,-217.42413330078125,-211.07420349121094,-347.010009765625,138.01412963867188,279.9091491699219,141.44288635253906,-489.055908203125
313233.57157290686,190.05401611328125,-219.3720703125,-212.97068786621094,-349.0089111328125,136.1815948486328,277.9971923828125,139.61386108398438,-490.85247802734375
313233.5755729069,188.24896240234375,-221.33999633789062,-214.85018920898438,-350.8739013671875,134.3605499267578,276.21710205078125,137.67291259765625,-492.7399597167969
313233.5795729069,189.900146484375,-219.65484619140625,-213.1865234375,-349.0508728027344,136.03671264648438,278.0881042480469,139.2131805419922,-491.2341613769531
313233.5835729069,191.9445037841797,-217.39566040039062,-210.97828674316406,-346.8011779785156,138.29940795898438,280.3897705078125,141.34996032714844,-489.0823974609375
313233.58757290686,191.4484100341797,-217.6314697265625,-211.27903747558594,-347.226318359375,138.08108520507812,279.8726806640625,141.0721893310547,-489.2622375488281
313233.5915729069,189.5284423828125,-219.61187744140625,-213.27244567871094,-349.338134765625,136.0921630859375,277.62799072265625,139.16021728515625,-491.1012878417969
313233.5955729069,187.96368408203125,-221.37347412109375,-214.9950714111328,-350.9373779296875,134.36305236816406,276.1097106933594,137.33717346191406,-492.87237548828125
313233.5995729069,189.69180297851562,-219.66783142089844,-213.27545166015625,-349.04937744140625,135.9108123779297,277.894775390625,139.02182006835938,-491.2951354980469
313233.60357290687,192.0714111328125,-217.259765625,-210.82440185546875,-346.5703430175781,138.3313751220703,280.3802795410156,141.49734497070312,-488.8900451660156
313233.6075729069,191.89404296875,-217.3861541748047,-210.95230102539062,-346.7996826171875,138.1520233154297,280.0555419921875,141.4978485107422,-488.8440856933594
313233.6115729069,189.8536834716797,-219.44801330566406,-212.96719360351562,-348.94195556640625,136.14312744140625,277.916259765625,139.513427734375,-490.7670593261719
313233.6155729069,188.0990753173828,-221.6222686767578,-214.9076385498047,-350.90240478515625,134.1667022705078,275.9858093261719,137.62294006347656,-492.74847412109375
313233.6195729069,190.1244659423828,-219.4979705810547,-213.01416015625,-348.90948486328125,135.87783813476562,277.8572998046875,139.5828857421875,-490.9134216308594
313233.6235729069,192.335693359375,-217.0099639892578,-210.7369842529297,-346.65728759765625,138.10806274414062,280.049560546875,141.90103149414062,-488.603271484375
313233.62757290684,191.80812072753906,-217.61447143554688,-211.1986083984375,-347.1493835449219,137.73934936523438,279.67034912109375,141.517333984375,-489.04290771484375
313233.63157290686,189.792724609375,-219.5908966064453,-213.11007690429688,-349.1318054199219,135.88983154296875,277.78436279296875,139.5074462890625,-490.88543701171875
313233.6355729069,187.92771911621094,-221.37496948242188,-214.92813110351562,-351.040283203125,134.05580139160156,275.7729797363281,137.56698608398438,-492.6675109863281
313233.6395729069,189.6763153076172,-219.77024841308594,-213.3124237060547,-349.3641357421875,135.44369506835938,277.1873474121094,139.2186737060547,-491.1727294921875
313233.64357290685,192.20030212402344,-217.17832946777344,-210.74147033691406,-346.6797790527344,137.99864196777344,279.8487243652344,141.79811096191406,-488.6572265625
313233.64757290686,191.9564971923828,-217.2437744140625,-210.82440185546875,-346.7856750488281,138.02662658691406,279.8652038574219,141.64222717285156,-488.6337585449219
313233.6515729069,190.06300354003906,-219.20919799804688,-212.73338317871094,-348.7840881347656,136.1346435546875,277.8268127441406,139.77023315429688,-490.46429443359375
313233.6555729069,188.39234924316406,-220.91783142089844,-214.4280242919922,-350.6291198730469,134.53591918945312,276.19561767578125,138.047607421875,-492.1609191894531
313233.65957290685,190.0695037841797,-219.1797332763672,-212.73037719726562,-348.8160705566406,136.1965789794922,278.0711364746094,139.65032958984375,-490.6946105957031
313233.66357290687,192.3496856689453,-217.03993225097656,-210.5576171875,-346.53936767578125,138.18099975585938,280.0515441894531,141.89903259277344,-488.5762939453125
313233.6675729069,191.86106872558594,-217.7968292236328,-211.14564514160156,-347.096923828125,137.5864715576172,279.3561096191406,141.49635314941406,-489.0379333496094
313233.67157290684,190.0435333251953,-219.37307739257812,-212.98318481445312,-348.8355407714844,136.1676025390625,277.8482971191406,139.63284301757812,-490.84197998046875
313233.67557290685,188.38385009765625,-220.9702911376953,-214.73977661132812,-350.566650390625,134.59136962890625,276.2231140136719,137.85775756835938,-492.63006591796875
313233.67957290687,190.1289520263672,-219.4280242919922,-213.1040802001953,-348.7246398925781,136.05569458007812,277.9851989746094,139.47047424316406,-491.1152648925781
313233.6835729069,192.4416046142578,-217.15234375,-210.7709503173828,-346.19464111328125,138.3203887939453,280.5086975097656,141.7901153564453,-488.8745422363281
313233.68757290684,192.21429443359375,-217.4516143798828,-210.9593048095703,-346.449951171875,138.08607482910156,280.125,141.6876983642578,-488.9385070800781
313233.69157290686,190.1679229736328,-219.29612731933594,-212.89674377441406,-348.4818115234375,136.27052307128906,278.1305847167969,139.66880798339844,-490.8170166015625
313233.6955729069,188.2159881591797,-221.31651306152344,-214.8551788330078,-350.4972229003906,134.3245849609375,276.1881408691406,137.64193725585938,-492.77294921875
313233.6995729069,190.00904846191406,-219.58740234375,-213.1380615234375,-348.670166015625,135.82537841796875,277.829833984375,139.37203979492188,-491.1502380371094
313233.70357290684,192.37815856933594,-217.1813201904297,-210.74298095703125,-346.25811767578125,138.1200408935547,280.1889343261719,141.8265838623047,-488.78863525390625
313233.70757290686,192.23927307128906,-217.2742462158203,-210.82791137695312,-346.41497802734375,138.17449951171875,280.146484375,141.78561401367188,-488.796630859375
313233.7115729069,190.27833557128906,-219.2067108154297,-212.7803497314453,-348.4383544921875,136.28851318359375,278.1380920410156,139.7882080078125,-490.6191711425781
313233.7155729069,188.51475524902344,-221.04823303222656,-214.59388732910156,-350.2384338378906,134.47296142578125,276.36248779296875,137.96617126464844,-492.3817443847656
313233.71957290685,190.09848022460938,-219.49847412109375,-213.04263305664062,-348.57574462890625,135.86285400390625,277.8533020019531,139.52142333984375,-490.909423828125
313233.72357290686,192.26174926757812,-217.19480895996094,-210.71499633789062,-346.2386169433594,137.89923095703125,279.73431396484375,141.86904907226562,-488.49285888671875
313233.7275729069,191.71568298339844,-217.4591064453125,-211.1211700439453,-346.7212219238281,137.39163208007812,279.1612548828125,141.47337341308594,-488.7311706542969
313233.7315729069,189.85867309570312,-219.25917053222656,-213.07510375976562,-348.6866760253906,135.79141235351562,277.6894226074219,139.44747924804688,-490.70111083984375
313233.73557290685,188.133056640625,-221.20361328125,-214.90914916992188,-350.5466613769531,134.09976196289062,275.94384765625,137.58547973632812,-492.6080627441406
313233.73957290687,189.8251953125,-219.5259552001953,-213.23997497558594,-348.777099609375,135.59857177734375,277.4546203613281,139.24664306640625,-491.0133361816406
313233.7435729069,192.30722045898438,-217.0319366455078,-210.73947143554688,-346.1866760253906,138.07008361816406,279.9975891113281,141.79360961914062,-488.57928466796875
313233.74757290684,191.9240264892578,-217.36717224121094,-211.009765625,-346.4539489746094,137.9686737060547,279.8392333984375,141.51583862304688,-488.8245849609375
313233.75157290685,189.8336944580078,-219.46800231933594,-213.01815795898438,-348.5143127441406,135.9822540283203,277.73590087890625,139.49095153808594,-490.7250671386719
313233.75557290687,188.24795532226562,-221.1476593017578,-214.72329711914062,-350.2009582519531,134.244140625,275.97381591796875,137.7353515625,-492.3907470703125
313233.7595729069,190.11497497558594,-219.23667907714844,-212.88525390625,-348.16107177734375,135.87234497070312,277.8183288574219,139.43899536132812,-490.70208740234375
313233.76357290684,192.4091339111328,-216.87057495117188,-210.5121612548828,-345.738525390625,138.21847534179688,280.2713623046875,141.77862548828125,-488.3859558105469
313233.76757290686,191.93601989746094,-217.28024291992188,-210.89285278320312,-346.1876525878906,137.9112091064453,279.8402099609375,141.39093017578125,-488.63775634765625
313233.7715729068,189.76824951171875,-219.468994140625,-212.99166870117188,-348.4048767089844,135.98326110839844,277.91424560546875,139.27162170410156,-490.6871032714844
313233.77557290683,188.14254760742188,-221.0292510986328,-214.59588623046875,-350.1559753417969,134.3390655517578,276.24560546875,137.6199493408203,-492.1739196777344
313233.77957290685,189.88465881347656,-219.30313110351562,-212.94520568847656,-348.4093933105469,135.71096801757812,277.6669616699219,139.23565673828125,-490.6656188964844
313233.78357290686,192.22378540039062,-216.8076171875,-210.60458374023438,-346.08026123046875,137.88873291015625,279.7602844238281,141.6232452392578,-488.35797119140625
313233.7875729068,191.968994140625,-217.0639190673828,-210.7534637451172,-346.2525939941406,137.74635314941406,279.5484619140625,141.49534606933594,-488.4129333496094
313233.79157290683,189.83969116210938,-219.14076232910156,-212.77035522460938,-348.3159484863281,135.82537841796875,277.6000061035156,139.44549560546875,-490.32489013671875
313233.79557290685,188.154541015625,-220.88436889648438,-214.43951416015625,-349.96063232421875,134.23565673828125,276.07373046875,137.6359405517578,-492.03802490234375
313233.79957290686,190.04502868652344,-219.0463409423828,-212.58200073242188,-348.0276794433594,135.8458709716797,277.7503967285156,139.4829559326172,-490.2554626464844
313233.8035729068,192.3227081298828,-216.78114318847656,-210.26785278320312,-345.7005615234375,138.00164794921875,279.7957458496094,141.8820343017578,-487.91082763671875
313233.80757290684,191.86306762695312,-217.0359344482422,-210.60658264160156,-346.07073974609375,137.69688415527344,279.39556884765625,141.59226989746094,-487.99176025390625
313233.81157290685,190.04002380371094,-218.8135223388672,-212.3751678466797,-347.8673095703125,135.86285400390625,277.41265869140625,139.7697296142578,-489.6654357910156
313233.81557290687,188.28643798828125,-220.6435546875,-214.1222686767578,-349.6219177246094,133.93240356445312,275.4327392578125,137.84877014160156,-491.3720703125
313233.8195729068,189.9680938720703,-218.97789001464844,-212.5130615234375,-347.7923889160156,135.71746826171875,277.5645446777344,139.3460693359375,-489.9227294921875
313233.82357290684,192.1503448486328,-216.95350646972656,-210.44671630859375,-345.62261962890625,137.86724853515625,279.8511962890625,141.5583038330078,-488.02374267578125
313233.82757290686,191.91653442382812,-217.06842041015625,-210.66952514648438,-345.87890625,137.64593505859375,279.4620056152344,141.35595703125,-488.1781005859375
313233.83157290687,189.96559143066406,-219.04434204101562,-212.58700561523438,-347.76190185546875,135.9517822265625,277.7803649902344,139.33058166503906,-490.10107421875
313233.8355729068,188.19400024414062,-220.95880126953125,-214.36756896972656,-349.4900207519531,134.1876983642578,276.0512390136719,137.42410278320312,-491.9526062011719
313233.83957290684,189.9201202392578,-219.04183959960938,-212.6769256591797,-347.7389221191406,135.5406036376953,277.4586181640625,139.06678771972656,-490.34088134765625
313233.84357290686,192.5565185546875,-216.44142150878906,-209.99057006835938,-344.8747253417969,138.21397399902344,280.3882751464844,141.74215698242188,-487.73046875
313233.8475729069,192.55601501464844,-216.39495849609375,-209.9181365966797,-344.822265625,138.35435485839844,280.4147644042969,141.8330841064453,-487.5641174316406
313233.85157290683,190.24485778808594,-218.77105712890625,-212.21080017089844,-347.27178955078125,136.0736846923828,277.90325927734375,139.59886169433594,-489.7618408203125
313233.85557290685,188.2809295654297,-220.71400451660156,-214.1547393798828,-349.34564208984375,134.17420959472656,276.0027770996094,137.62794494628906,-491.7023010253906
313233.85957290686,189.95359802246094,-219.10678100585938,-212.54452514648438,-347.63299560546875,135.52862548828125,277.5540466308594,139.2191619873047,-490.1914978027344
313233.8635729069,192.48057556152344,-216.62876892089844,-210.0350341796875,-345.048583984375,137.8427734375,279.84820556640625,141.74964904785156,-487.6605224609375
313233.86757290683,192.06141662597656,-216.78964233398438,-210.30482482910156,-345.3957824707031,137.68589782714844,279.5234680175781,141.4398956298828,-487.81890869140625
313233.87157290685,189.96559143066406,-218.70460510253906,-212.29722595214844,-347.5365905761719,135.8223876953125,277.40765380859375,139.42050170898438,-489.7038879394531
313233.8755729068,187.88925170898438,-220.91783142089844,-214.41653442382812,-349.69384765625,133.759033203125,275.3468017578125,137.2372589111328,-491.8426818847656
313233.8795729068,189.49246215820312,-219.28164672851562,-212.81231689453125,-347.91876220703125,135.2638397216797,277.08892822265625,138.66860961914062,-490.35736083984375
313233.88357290684,192.03793334960938,-216.46640014648438,-210.17742919921875,-345.29736328125,137.7913055419922,279.48101806640625,141.3074951171875,-487.6495361328125
313233.88757290685,191.86306762695312,-216.63775634765625,-210.395751953125,-345.6156311035156,137.77532958984375,279.3611145019531,141.259033203125,-487.8528747558594
313233.8915729068,189.5789031982422,-218.88246154785156,-212.63795471191406,-348.0221862792969,135.7234649658203,277.226318359375,139.0193328857422,-490.09857177734375
313233.8955729068,187.8118133544922,-220.87136840820312,-214.52044677734375,-349.97613525390625,133.9978485107422,275.46173095703125,137.10986328125,-492.0820007324219
313233.89957290684,190.11996459960938,-218.81251525878906,-212.46009826660156,-347.74041748046875,135.8743438720703,277.5335693359375,139.2581329345703,-490.1615295410156
313233.90357290686,192.5705108642578,-216.2525634765625,-209.9790802001953,-345.1819763183594,138.49574279785156,280.37579345703125,141.78012084960938,-487.7994079589844
313233.9075729068,192.3861541748047,-216.5003662109375,-210.22589111328125,-345.44573974609375,138.435302734375,280.2474060058594,141.7091827392578,-487.98626708984375
313233.9115729068,190.41673278808594,-218.4273223876953,-212.11737060546875,-347.3702087402344,136.62974548339844,278.3154296875,139.77223205566406,-489.744873046875
313233.91557290684,188.29092407226562,-220.63705444335938,-214.22618103027344,-349.4820251464844,134.46347045898438,276.0967102050781,137.5554962158203,-491.8127136230469
313233.91957290686,190.0425262451172,-218.9549102783203,-212.56201171875,-347.68646240234375,135.6425323486328,277.3302307128906,139.21517944335938,-490.1775207519531
313233.9235729068,192.35267639160156,-216.55532836914062,-210.1534423828125,-345.2099304199219,137.90872192382812,279.76226806640625,141.6272430419922,-487.78692626953125
313233.92757290683,192.0718994140625,-216.78463745117188,-210.3612823486328,-345.5057067871094,137.72137451171875,279.4850158691406,141.47935485839844,-487.85687255859375
313233.93157290685,189.900146484375,-218.9484100341797,-212.5345458984375,-347.828857421875,135.65701293945312,277.3921813964844,139.33407592773438,-489.896240234375
313233.93557290686,188.2374725341797,-220.46969604492188,-214.2067108154297,-349.5409851074219,134.23065185546875,276.1241760253906,137.5285186767578,-491.6053771972656
313233.9395729068,190.11346435546875,-218.66563415527344,-212.4541015625,-347.5980224609375,135.8418731689453,277.938232421875,139.2941131591797,-489.97467041015625
313233.94357290684,192.56350708007812,-216.39895629882812,-210.12046813964844,-345.1929626464844,138.04061889648438,280.03955078125,141.85806274414062,-487.6430358886719
313233.94757290685,192.07290649414062,-216.84359741210938,-210.54612731933594,-345.6380920410156,137.72486877441406,279.6738586425781,141.5043487548828,-487.99127197265625
313233.9515729068,189.8107147216797,-219.05482482910156,-212.7049102783203,-347.86932373046875,135.7544403076172,277.64495849609375,139.2726287841797,-490.1100769042969
313233.9555729068,188.0791015625,-220.977294921875,-214.55941772460938,-349.8432312011719,133.89642333984375,275.63409423828125,137.42311096191406,-491.99755859375
313233.95957290684,189.96258544921875,-219.07681274414062,-212.66842651367188,-347.81787109375,135.65602111816406,277.50408935546875,139.1971893310547,-490.2374572753906
313233.96357290685,192.3012237548828,-216.53733825683594,-210.16842651367188,-345.29937744140625,138.04360961914062,279.8631896972656,141.64022827148438,-487.70599365234375
313233.9675729068,191.9225311279297,-216.9924774169922,-210.54013061523438,-345.75201416015625,137.5819854736328,279.4210510253906,141.37094116210938,-488.0247497558594
313233.9715729068,189.7872314453125,-219.177734375,-212.6339569091797,-347.93475341796875,135.53811645507812,277.38018798828125,139.32708740234375,-490.01763916015625
313233.97557290684,187.9986572265625,-220.98678588867188,-214.46798706054688,-349.7752990722656,133.67860412597656,275.4967041015625,137.39413452148438,-491.7987060546875
313233.97957290686,190.05601501464844,-218.97938537597656,-212.60598754882812,-347.8283386230469,135.22735595703125,277.1024169921875,139.26063537597656,-490.02313232421875
313233.9835729068,192.41912841796875,-216.59230041503906,-210.2363739013672,-345.4267578125,137.57398986816406,279.51397705078125,141.7186737060547,-487.6820068359375
313233.98757290683,192.1223602294922,-216.6837158203125,-210.3937530517578,-345.6990661621094,137.3381805419922,279.1033020019531,141.64622497558594,-487.6809997558594
313233.99157290685,189.93511962890625,-218.94541931152344,-212.45860290527344,-347.850830078125,135.52561950683594,277.20831298828125,139.47496032714844,-489.7758483886719
313233.99557290686,188.12506103515625,-220.67953491210938,-214.26315307617188,-349.71734619140625,133.91241455078125,275.5036926269531,137.5165252685547,-491.6618347167969
313233.9995729068,190.13995361328125,-218.71510314941406,-212.32521057128906,-347.63800048828125,135.68699645996094,277.4696044921875,139.36904907226562,-489.9217224121094
313234.00357290683,192.572998046875,-216.22708129882812,-209.83419799804688,-345.0166015625,138.01513671875,279.9001770019531,141.84307861328125,-487.4322204589844
313234.00757290685,192.31570434570312,-216.38096618652344,-209.964599609375,-345.15447998046875,137.97267150878906,279.8467102050781,141.69918823242188,-487.4486999511719
313234.01157290686,190.06350708007812,-218.64566040039062,-212.206298828125,-347.4791259765625,135.85235595703125,277.7234191894531,139.48995971679688,-489.61895751953125
313234.0155729068,187.99716186523438,-220.88685607910156,-214.36956787109375,-349.72833251953125,133.73106384277344,275.589111328125,137.31019592285156,-491.83819580078125
313234.01957290684,189.75526428222656,-219.34759521484375,-212.7848358154297,-348.06365966796875,135.04901123046875,276.9205627441406,138.9903564453125,-490.3983459472656
313234.02357290685,192.4131317138672,-216.6402587890625,-210.1839141845703,-345.3358459472656,137.60496520996094,279.5374450683594,141.6432342529297,-487.827880859375
313234.02757290687,192.13235473632812,-216.7786407470703,-210.3173065185547,-345.4217834472656,137.7153778076172,279.8192443847656,141.43289184570312,-487.8663635253906
313234.0315729068,189.88815307617188,-218.84300231933594,-212.43212890625,-347.6300048828125,135.6630096435547,277.63848876953125,139.3265838623047,-489.7218933105469
313234.03557290684,187.9586944580078,-220.8503875732422,-214.45449829101562,-349.69085693359375,133.586669921875,275.4851989746094,137.36814880371094,-491.61285400390625
313234.03957290686,189.60887145996094,-219.27066040039062,-212.89524841308594,-348.0461730957031,134.89712524414062,276.8805847167969,138.96437072753906,-490.2204895019531
313234.0435729068,192.39564514160156,-216.49786376953125,-210.19540405273438,-345.3113708496094,137.74884033203125,279.82672119140625,141.7241668701172,-487.6645202636719
313234.0475729068,192.1258544921875,-216.60128784179688,-210.38125610351562,-345.566650390625,137.75633239746094,279.64837646484375,141.55230712890625,-487.7669372558594
313234.05157290684,189.84718322753906,-218.84249877929688,-212.56451416015625,-347.8253479003906,135.72845458984375,277.4811096191406,139.33058166503906,-489.8642578125
313234.05557290686,188.04762268066406,-220.6940155029297,-214.4315185546875,-349.682373046875,133.87294006347656,275.6950378417969,137.3846435546875,-491.6728210449219
313234.0595729068,189.87716674804688,-218.97088623046875,-212.7144012451172,-347.77789306640625,135.17990112304688,277.13787841796875,139.13323974609375,-490.0101623535156
313234.06357290683,192.05841064453125,-216.68722534179688,-210.43621826171875,-345.42327880859375,137.41461181640625,279.4620056152344,141.35595703125,-487.77545166015625
313234.0675729068,191.7451629638672,-217.05892944335938,-210.7060089111328,-345.6905517578125,137.24224853515625,279.2366943359375,141.07269287109375,-488.021728515625
313234.0715729068,189.75375366210938,-219.01336669921875,-212.6459503173828,-347.742431640625,135.5511016845703,277.41766357421875,139.0463104248047,-489.9466857910156
313234.0755729068,188.1890106201172,-220.63705444335938,-214.30313110351562,-349.5364685058594,133.93589782714844,275.61309814453125,137.35665893554688,-491.6363525390625
313234.07957290683,190.1609344482422,-219.04783630371094,-212.56651306152344,-347.6449890136719,135.42869567871094,277.2532958984375,139.1612091064453,-490.112060546875
313234.0835729068,192.72088623046875,-216.5003662109375,-210.03903198242188,-345.08953857421875,137.94268798828125,279.7902526855469,141.79360961914062,-487.6730041503906
313234.0875729068,192.36167907714844,-216.53533935546875,-210.23037719726562,-345.3558349609375,137.87074279785156,279.6558532714844,141.57627868652344,-487.7994079589844
313234.0915729068,190.1409454345703,-218.79454040527344,-212.32571411132812,-347.4806213378906,135.90830993652344,277.75738525390625,139.40802001953125,-489.788818359375
313234.09557290684,188.16253662109375,-220.72598266601562,-214.26666259765625,-349.4960021972656,133.96237182617188,275.78045654296875,137.41561889648438,-491.70977783203125
313234.0995729068,189.93661499023438,-219.0323486328125,-212.62547302246094,-347.71844482421875,135.4237060546875,277.3542175292969,139.103759765625,-490.2244873046875
313234.1035729068,192.68441772460938,-216.29103088378906,-210.00006103515625,-345.0310974121094,137.96766662597656,279.9476318359375,141.82858276367188,-487.62554931640625
313234.1075729068,192.36167907714844,-216.6692352294922,-210.33279418945312,-345.4417724609375,137.73635864257812,279.6843566894531,141.66421508789062,-487.88885498046875
313234.11157290684,190.0115509033203,-219.08030700683594,-212.70240783691406,-347.97222900390625,135.55809020996094,277.4246520996094,139.37554931640625,-490.17901611328125
313234.11557290686,188.17901611328125,-220.99127197265625,-214.59689331054688,-349.9836120605469,133.6995849609375,275.44622802734375,137.45408630371094,-492.094482421875
313234.1195729068,189.96058654785156,-219.12826538085938,-212.79583740234375,-348.0556640625,135.1579132080078,276.9700012207031,139.2131805419922,-490.2364807128906
313234.1235729068,192.27774047851562,-216.7286834716797,-210.47569274902344,-345.6031188964844,137.31568908691406,279.3296203613281,141.5478057861328,-487.9342956542969
313234.12757290684,192.0254364013672,-216.9580078125,-210.6400604248047,-345.8309326171875,137.4945526123047,279.5799255371094,141.33148193359375,-488.1971130371094
313234.13157290686,189.92662048339844,-219.1167755126953,-212.6564483642578,-347.9742431640625,135.66201782226562,277.6134948730469,139.27012634277344,-490.13006591796875
313234.1355729068,188.30641174316406,-220.57810974121094,-214.30812072753906,-349.75579833984375,133.97686767578125,275.8089294433594,137.55850219726562,-491.727783203125
313234.13957290683,190.17991638183594,-218.91793823242188,-212.5885009765625,-347.8982849121094,135.32579040527344,277.2143249511719,139.35655212402344,-490.1170654296875
313234.14357290685,192.4291229248047,-216.74867248535156,-210.32730102539062,-345.53717041015625,137.3651580810547,279.2052307128906,141.70217895507812,-487.84039306640625
313234.14757290686,192.03793334960938,-216.96099853515625,-210.5876007080078,-345.760009765625,137.20677185058594,279.0528564453125,141.4074249267578,-487.9927673339844
313234.1515729068,189.8541717529297,-218.8739776611328,-212.68441772460938,-347.9192810058594,135.26333618164062,277.04296875,139.24864196777344,-489.95867919921875
313234.15557290684,188.38685607910156,-220.63555908203125,-214.41403198242188,-349.6089172363281,133.8074951171875,275.66107177734375,137.4690704345703,-491.86865234375
313234.15957290685,190.2003936767578,-218.9374237060547,-212.71189880371094,-347.8068542480469,135.3932342529297,277.3901672363281,139.19418334960938,-490.3069152832031
313234.16357290687,192.5220489501953,-216.591796875,-210.35728454589844,-345.394287109375,137.60296630859375,279.69232177734375,141.62074279785156,-487.9607849121094
313234.1675729068,191.9819793701172,-217.02244567871094,-210.77944946289062,-345.8344421386719,137.5035400390625,279.564453125,141.1456298828125,-488.3759460449219
313234.17157290684,190.0350341796875,-218.9593963623047,-212.57550048828125,-347.68695068359375,135.762939453125,277.7398986816406,139.29910278320312,-490.0516052246094
313234.17557290685,188.4263153076172,-220.49966430664062,-214.18421936035156,-349.35064697265625,134.22366333007812,276.127197265625,137.59446716308594,-491.65283203125
313234.17957290687,190.05950927734375,-218.94091796875,-212.66693115234375,-347.7519226074219,135.48065185546875,277.4736022949219,139.17071533203125,-490.1875
313234.1835729068,192.4630889892578,-216.61927795410156,-210.25535583496094,-345.3118591308594,137.68789672851562,279.6958312988281,141.72816467285156,-487.73797607421875
313234.18757290684,192.314208984375,-216.65174865722656,-210.35128784179688,-345.51519775390625,137.64593505859375,279.5634460449219,141.68719482421875,-487.7139892578125
313234.19157290686,189.94210815429688,-218.9214324951172,-212.59548950195312,-347.8473205566406,135.5885772705078,277.44464111328125,139.3440704345703,-489.8802490234375
313234.1955729069,188.0541229248047,-220.64205932617188,-214.4115447998047,-349.6998596191406,133.8699493408203,275.66656494140625,137.3921356201172,-491.727783203125
313234.19957290683,189.7962188720703,-218.81002807617188,-212.63645935058594,-347.7923889160156,135.42970275878906,277.3032531738281,139.1067657470703,-490.0101623535156
313234.20357290684,192.40513610839844,-216.49786376953125,-210.17991638183594,-345.199951171875,137.7118682861328,279.6963195800781,141.70118713378906,-487.60406494140625
313234.20757290686,192.15834045410156,-216.7122039794922,-210.4532012939453,-345.5431823730469,137.5879669189453,279.5209655761719,141.5153350830078,-487.8343811035156
313234.2115729069,190.05502319335938,-218.7630615234375,-212.55702209472656,-347.7813720703125,135.70098876953125,277.4891052246094,139.41751098632812,-489.9436950683594
313234.21557290683,188.13356018066406,-220.82791137695312,-214.533935546875,-349.7723083496094,133.7860107421875,275.48968505859375,137.3921356201172,-491.9875793457031
313234.21957290685,189.8496856689453,-219.25765991210938,-212.9477081298828,-347.9627380371094,135.17739868164062,277.14837646484375,138.9443817138672,-490.5751953125
313234.22357290686,192.4705810546875,-216.5518341064453,-210.35379028320312,-345.2983703613281,137.6144561767578,279.68084716796875,141.63723754882812,-487.977783203125
313234.2275729069,192.2257843017578,-216.73068237304688,-210.58709716796875,-345.66656494140625,137.52552795410156,279.52447509765625,141.46487426757812,-488.1456298828125
313234.23157290684,189.8646697998047,-219.04434204101562,-212.86077880859375,-348.05267333984375,135.51812744140625,277.3622131347656,139.1931915283203,-490.3103942871094
313234.23557290685,188.0935821533203,-220.65704345703125,-214.64735412597656,-349.9071960449219,133.59317016601562,275.2348937988281,137.38563537597656,-491.901123046875
313234.23957290687,189.663330078125,-219.21669006347656,-213.1025848388672,-348.1361083984375,134.85964965820312,276.82562255859375,138.85845947265625,-490.4727783203125
313234.2435729068,192.16831970214844,-216.60379028320312,-210.5576171875,-345.479736328125,137.35415649414062,279.447021484375,141.37344360351562,-487.9497985839844
313234.24757290684,192.05491638183594,-216.69871520996094,-210.70001220703125,-345.7270202636719,137.4246063232422,279.4450378417969,141.30349731445312,-488.0896911621094
313234.25157290685,189.8501739501953,-218.9354248046875,-212.89125061035156,-348.02069091796875,135.4906463623047,277.4781188964844,139.11724853515625,-490.1800231933594
313234.25557290687,188.0576171875,-220.85238647460938,-214.73927307128906,-349.9421691894531,133.83348083496094,275.7559814453125,137.2202606201172,-492.137451171875
313234.2595729068,190.0530242919922,-218.83799743652344,-212.74636840820312,-347.7988586425781,135.65402221679688,277.5945129394531,139.15371704101562,-490.2849426269531
313234.26357290684,192.58448791503906,-216.35548400878906,-210.2753448486328,-345.2069396972656,138.01263427734375,280.0440673828125,141.71966552734375,-487.8558654785156
313234.2675729068,192.20680236816406,-216.79563903808594,-210.73997497558594,-345.7045593261719,137.70538330078125,279.8117370605469,141.36395263671875,-488.3114929199219
313234.2715729068,190.04702758789062,-219.09030151367188,-212.9192352294922,-347.990234375,135.6360321044922,277.7074279785156,139.25613403320312,-490.43231201171875
313234.27557290683,188.2709503173828,-221.03173828125,-214.76675415039062,-349.8612365722656,133.7625274658203,275.84490966796875,137.40512084960938,-492.2738342285156
313234.27957290685,190.14694213867188,-219.14625549316406,-212.9636993408203,-347.9682312011719,135.38673400878906,277.56854248046875,139.16671752929688,-490.6471252441406
313234.2835729068,192.40663146972656,-216.86007690429688,-210.62106323242188,-345.59063720703125,137.5165252685547,279.6993408203125,141.52333068847656,-488.2700500488281
313234.2875729068,192.055419921875,-217.00047302246094,-210.826904296875,-345.8774108886719,137.33218383789062,279.37908935546875,141.32098388671875,-488.34246826171875
313234.29157290683,189.7797393798828,-219.0033721923828,-212.92771911621094,-348.12261962890625,135.3557586669922,277.2527770996094,139.0907745361328,-490.3448791503906
313234.29557290685,188.0955810546875,-220.87936401367188,-214.62136840820312,-349.84222412109375,133.619140625,275.52215576171875,137.29420471191406,-492.05999755859375
313234.2995729068,190.08099365234375,-218.8619842529297,-212.67442321777344,-347.785888671875,135.1684112548828,277.0379638671875,139.19969177246094,-490.14154052734375
313234.3035729068,192.65843200683594,-216.19410705566406,-210.09149169921875,-345.14898681640625,137.70338439941406,279.5929260253906,141.80010986328125,-487.6205749511719
313234.30757290684,192.2527618408203,-216.56581115722656,-210.4422149658203,-345.50421142578125,137.71487426757812,279.76678466796875,141.43939208984375,-487.9902648925781
313234.31157290685,189.9076385498047,-219.02285766601562,-212.83030700683594,-348.01568603515625,135.47366333007812,277.3876647949219,139.13023376464844,-490.27545166015625
313234.31557290687,188.07260131835938,-220.956298828125,-214.75875854492188,-349.9881286621094,133.43978881835938,275.2064208984375,137.1663055419922,-492.13494873046875
313234.3195729068,189.98606872558594,-219.1167755126953,-212.9262237548828,-348.0296936035156,135.0070343017578,276.9340515136719,138.9613800048828,-490.43829345703125
313234.32357290684,192.4056396484375,-216.77464294433594,-210.4691925048828,-345.4922180175781,137.4840545654297,279.6174011230469,141.47836303710938,-488.0462341308594
313234.32757290686,192.2692413330078,-216.79713439941406,-210.6845245361328,-345.7804870605469,137.45657348632812,279.3985595703125,141.39842224121094,-488.1980895996094
313234.33157290687,190.11196899414062,-218.8470001220703,-212.8238067626953,-348.0246887207031,135.48915100097656,277.28125,139.2601318359375,-490.2639465332031
313234.3355729068,188.17002868652344,-220.8234100341797,-214.7078094482422,-349.9131774902344,133.5077362060547,275.3203430175781,137.23974609375,-492.12396240234375
313234.33957290684,190.00155639648438,-219.09629821777344,-212.94171142578125,-347.8872985839844,135.0340118408203,277.08892822265625,138.92091369628906,-490.4937744140625
313234.34357290686,192.41412353515625,-216.61727905273438,-210.4477081298828,-345.2818908691406,137.4475860595703,279.6134033203125,141.35845947265625,-488.042724609375
313234.3475729069,192.03793334960938,-216.67922973632812,-210.6850128173828,-345.6355895996094,137.28021240234375,279.253173828125,141.1151580810547,-488.1356506347656
313234.35157290683,189.66482543945312,-219.00636291503906,-212.960693359375,-347.9977111816406,135.2998046875,277.2527770996094,138.78651428222656,-490.36236572265625
313234.35557290685,188.04013061523438,-220.79393005371094,-214.63735961914062,-349.6843566894531,133.68209838867188,275.6300964355469,137.03341674804688,-492.08099365234375
313234.35957290686,189.98257446289062,-219.07131958007812,-212.86776733398438,-347.75640869140625,135.20986938476562,277.3272399902344,138.80799865722656,-490.5097351074219
313234.3635729069,192.41912841796875,-216.54483032226562,-210.40774536132812,-345.2494201660156,137.76882934570312,280.0350646972656,141.2390594482422,-488.1841125488281
313234.36757290683,192.1178741455078,-216.79913330078125,-210.6920166015625,-345.631103515625,137.5899658203125,279.7417907714844,141.0811767578125,-488.4099426269531
313234.37157290685,189.97708129882812,-218.9968719482422,-212.77035522460938,-347.7633972167969,135.55360412597656,277.571533203125,138.97686767578125,-490.41583251953125
313234.3755729068,188.1565399169922,-220.9613037109375,-214.6363525390625,-349.6194152832031,133.63462829589844,275.5401611328125,137.0184326171875,-492.28082275390625
313234.3795729068,190.00704956054688,-218.90695190429688,-212.74937438964844,-347.6749572753906,135.26333618164062,277.1798400878906,138.82098388671875,-490.4438171386719
313234.38357290684,192.21080017089844,-216.516357421875,-210.38626098632812,-345.2734069824219,137.487060546875,279.5159912109375,141.16461181640625,-488.0652160644531
313234.38757290685,191.9445037841797,-216.81512451171875,-210.7010040283203,-345.6490783691406,137.26173400878906,279.1717529296875,140.91531372070312,-488.3139953613281
313234.3915729068,189.82620239257812,-219.05982971191406,-212.82281494140625,-347.8273620605469,135.2428436279297,277.08392333984375,138.80300903320312,-490.3613586425781
313234.3955729068,187.68141174316406,-221.18263244628906,-214.94410705566406,-350.0071105957031,133.18299865722656,274.9216613769531,136.61375427246094,-492.48016357421875
313234.39957290684,189.3260955810547,-219.33460998535156,-213.33740234375,-348.2859802246094,134.71726989746094,276.5918273925781,138.17601013183594,-490.9079284667969
313234.40357290686,191.77914428710938,-216.88006591796875,-210.90234375,-345.7705078125,137.00942993164062,278.9389343261719,140.68899536132812,-488.4479064941406
313234.4075729068,191.57130432128906,-217.1108856201172,-211.04722595214844,-345.911376953125,136.8765411376953,278.81304931640625,140.5421142578125,-488.5003662109375
313234.4115729068,189.5179443359375,-219.12327575683594,-213.0825958251953,-348.1475830078125,134.97506713867188,276.72021484375,138.53221130371094,-490.5107421875
313234.41557290684,187.9746856689453,-220.90884399414062,-214.85118103027344,-349.97564697265625,133.21047973632812,274.8661804199219,136.85006713867188,-492.3083190917969
313234.41957290686,189.9306182861328,-219.14675903320312,-213.0591278076172,-347.95623779296875,134.88613891601562,276.9190673828125,138.6006622314453,-490.71807861328125
313234.4235729068,192.33070373535156,-216.7591552734375,-210.61407470703125,-345.3353576660156,137.4410858154297,279.5954284667969,141.0057373046875,-488.4149169921875
313234.42757290683,191.77413940429688,-217.12088012695312,-210.94430541992188,-345.74200439453125,137.13333129882812,279.1003112792969,140.67950439453125,-488.64324951171875
313234.43157290685,189.72727966308594,-219.02984619140625,-212.981689453125,-347.8778076171875,135.24484252929688,277.08642578125,138.6111602783203,-490.6086730957031
313234.43557290686,188.06410217285156,-220.66903686523438,-214.59689331054688,-349.478515625,133.7030792236328,275.51666259765625,136.8645477294922,-492.1009826660156
313234.4395729068,189.56690979003906,-219.2301788330078,-213.06312561035156,-347.7149353027344,135.06898498535156,277.1044006347656,138.2599334716797,-490.6671142578125
313234.44357290684,192.0644073486328,-216.58480834960938,-210.53713989257812,-345.1719665527344,137.46656799316406,279.53045654296875,140.8363800048828,-488.09716796875
313234.44757290685,191.73367309570312,-216.56932067871094,-210.69052124023438,-345.4682312011719,137.35316467285156,279.2536926269531,140.70448303222656,-488.0966796875
313234.4515729068,189.6813201904297,-218.4363250732422,-212.5745086669922,-347.4531555175781,135.5316162109375,277.1788330078125,138.7230682373047,-489.7928161621094
313234.4555729068,187.723876953125,-220.44471740722656,-214.50396728515625,-349.3990783691406,133.57818603515625,275.2079162597656,136.63873291015625,-491.6922912597656
313234.45957290684,189.5199432373047,-218.71559143066406,-212.81082153320312,-347.5041198730469,135.04750061035156,276.8725891113281,138.29541015625,-490.1060791015625
313234.46357290685,192.11936950683594,-216.09219360351562,-210.2178955078125,-344.9156799316406,137.56849670410156,279.4155578613281,141.01123046875,-487.5885925292969
313234.4675729068,191.58580017089844,-216.58779907226562,-210.69300842285156,-345.53717041015625,137.0888671875,278.8600158691406,140.6360321044922,-488.0007629394531
313234.4715729068,189.3905487060547,-219.13526916503906,-213.02764892578125,-347.9212646484375,134.8656463623047,276.8051452636719,138.49075317382812,-490.3648681640625
313234.4755729068,187.80531311035156,-220.86387634277344,-214.70980834960938,-349.7323303222656,133.26393127441406,275.1829528808594,136.8910369873047,-492.041015625
313234.4795729068,189.86917114257812,-218.8115234375,-212.74037170410156,-347.6344909667969,134.95907592773438,276.9095764160156,138.7935028076172,-490.1700134277344
313234.4835729068,192.36117553710938,-216.106689453125,-210.06651306152344,-344.9351501464844,137.40762329101562,279.3670959472656,141.37445068359375,-487.42822265625
313234.48757290683,192.04592895507812,-216.4354248046875,-210.2533721923828,-345.25689697265625,137.39813232421875,279.2681884765625,141.20108032226562,-487.57110595703125
313234.4915729068,190.16693115234375,-218.41583251953125,-212.19981384277344,-347.246826171875,135.64602661132812,277.37969970703125,139.25863647460938,-489.5465087890625
313234.4955729068,188.36737060546875,-220.35829162597656,-214.10427856445312,-349.05535888671875,133.61614990234375,275.2563781738281,137.25074768066406,-491.42401123046875
313234.4995729068,190.07200622558594,-218.62716674804688,-212.39315795898438,-347.1139221191406,135.0175323486328,276.7896423339844,138.82598876953125,-489.7358703613281
313234.50357290683,192.68641662597656,-215.66354370117188,-209.5609130859375,-344.13330078125,137.80780029296875,279.6073913574219,141.51133728027344,-486.84918212890625
313234.5075729068,192.39114379882812,-215.6240692138672,-209.56591796875,-344.1477966308594,137.7748260498047,279.4480285644531,141.37744140625,-486.6893005371094
313234.5115729068,190.31431579589844,-217.9622039794922,-211.76416015625,-346.4539489746094,135.86135864257812,277.5595397949219,139.29261779785156,-488.948486328125
313234.5155729068,188.5622100830078,-220.0095672607422,-213.75656127929688,-348.6412048339844,134.0318145751953,275.7125244140625,137.5120391845703,-490.9793701171875
313234.5195729068,190.4357147216797,-218.24098205566406,-212.07041931152344,-346.94354248046875,135.49964904785156,277.23431396484375,139.3925323486328,-489.4096374511719
313234.5235729068,192.7398681640625,-215.81890869140625,-209.8012237548828,-344.7193298339844,137.82179260253906,279.6633605957031,141.80210876464844,-487.2248840332031
313234.5275729068,192.36717224121094,-216.1321563720703,-210.10647583007812,-345.1120300292969,137.82627868652344,279.6503601074219,141.52981567382812,-487.4971618652344
313234.5315729068,190.14443969726562,-218.3518829345703,-212.27024841308594,-347.3622131347656,135.87783813476562,277.7019348144531,139.32908630371094,-489.6329650878906
313234.5355729068,188.18101501464844,-220.51715087890625,-214.31161499023438,-349.4205627441406,133.69358825683594,275.45123291015625,137.28721618652344,-491.6188659667969
313234.5395729068,190.13995361328125,-218.4043426513672,-212.3731689453125,-347.311767578125,135.2588348388672,277.0584411621094,139.18020629882812,-489.7004089355469
313234.5435729068,192.54202270507812,-216.02774047851562,-210.00906372070312,-344.81475830078125,137.4905548095703,279.3261413574219,141.61575317382812,-487.37677001953125
313234.5475729068,192.29421997070312,-216.258056640625,-210.22189331054688,-345.04705810546875,137.53701782226562,279.3755798339844,141.47586059570312,-487.47467041015625
313234.5515729068,190.02903747558594,-218.5067596435547,-212.4665985107422,-347.3497314453125,135.57357788085938,277.4996032714844,139.22915649414062,-489.7248840332031
313234.5555729068,188.4383087158203,-220.00607299804688,-214.05332946777344,-348.9974060058594,133.9668731689453,275.87139892578125,137.52352905273438,-491.2956237792969
313234.5595729068,190.30581665039062,-218.11257934570312,-212.12786865234375,-346.924560546875,135.56808471679688,277.5270690917969,139.28262329101562,-489.4336242675781
313234.56357290683,192.68492126464844,-215.6220703125,-209.63035583496094,-344.3611145019531,137.8642578125,279.75079345703125,141.7781219482422,-486.8636779785156
313234.5675729068,192.24276733398438,-216.08070373535156,-210.04103088378906,-344.8187561035156,137.50953674316406,279.3721008300781,141.4384002685547,-487.1684265136719
313234.5715729068,189.9955596923828,-218.30892944335938,-212.34519958496094,-347.3002624511719,135.4097137451172,277.1288757324219,139.25863647460938,-489.41461181640625
313234.5755729068,188.14854431152344,-220.40673828125,-214.36058044433594,-349.402099609375,133.52871704101562,275.11151123046875,137.3556671142578,-491.5429382324219
313234.57957290683,189.89614868164062,-218.67013549804688,-212.6929168701172,-347.6240234375,134.91860961914062,276.49688720703125,139.04830932617188,-489.9537048339844
313234.5835729068,192.73387145996094,-215.84588623046875,-209.9291229248047,-344.80975341796875,137.86026000976562,279.4754943847656,141.8585662841797,-487.28582763671875
313234.5875729068,192.5240478515625,-215.94781494140625,-210.158935546875,-345.0160827636719,137.9906463623047,279.5609436035156,141.63623046875,-487.4986572265625
313234.5915729068,190.2723388671875,-218.25746154785156,-212.4396209716797,-347.3916931152344,136.06419372558594,277.5700378417969,139.45248413085938,-489.76934814453125
313234.59557290684,188.56370544433594,-220.11497497558594,-214.26016235351562,-349.2886962890625,134.5204315185547,276.1231994628906,137.616943359375,-491.6753234863281
313234.5995729068,190.31930541992188,-218.76356506347656,-212.74887084960938,-347.55706787109375,135.6954803466797,277.5735168457031,139.16571044921875,-490.3204040527344
313234.6035729068,192.6299591064453,-216.41893005371094,-210.40823364257812,-345.16497802734375,137.69288635253906,279.6258850097656,141.5857696533203,-487.9198303222656
313234.6075729068,192.3002166748047,-216.4229278564453,-210.589599609375,-345.4747314453125,137.55149841308594,279.4260559082031,141.43789672851562,-487.9018249511719
313234.61157290684,190.1464385986328,-218.90045166015625,-212.85877990722656,-347.8443298339844,135.37774658203125,277.291748046875,139.29261779785156,-490.20550537109375
313234.61557290686,188.46128845214844,-220.7045135498047,-214.62486267089844,-349.5974426269531,133.3838348388672,275.372802734375,137.50054931640625,-491.8806457519531
313234.6195729069,190.38475036621094,-218.59619140625,-212.6099853515625,-347.38970947265625,135.04949951171875,277.24627685546875,139.32757568359375,-489.86376953125
313234.6235729068,192.75535583496094,-216.0767059326172,-210.06451416015625,-344.73883056640625,137.5070343017578,279.7662658691406,141.79360961914062,-487.3163146972656
313234.62757290684,192.36666870117188,-216.27105712890625,-210.29232788085938,-345.0176086425781,137.28921508789062,279.36859130859375,141.55929565429688,-487.417724609375
313234.63157290686,190.31631469726562,-218.47129821777344,-212.37815856933594,-347.1813659667969,135.34576416015625,277.2822570800781,139.52992248535156,-489.47308349609375
313234.6355729069,188.49026489257812,-220.20240783691406,-214.1907196044922,-349.0953369140625,133.5397186279297,275.2449035644531,137.6434326171875,-491.2921142578125
313234.63957290683,190.36827087402344,-218.20201110839844,-212.3321990966797,-347.1229248046875,135.11944580078125,276.79315185546875,139.44898986816406,-489.4750671386719
313234.64357290685,192.84628295898438,-215.72349548339844,-209.87466430664062,-344.5649719238281,137.6359405517578,279.4510192871094,141.87005615234375,-487.08349609375
313234.64757290686,192.50155639648438,-216.17312622070312,-210.2503662109375,-345.0130920410156,137.41860961914062,279.1467590332031,141.5747833251953,-487.47967529296875
313234.6515729069,190.36427307128906,-218.39035034179688,-212.36866760253906,-347.2563171386719,135.43519592285156,277.05645751953125,139.50393676757812,-489.5305480957031
313234.65557290684,188.68211364746094,-220.18441772460938,-214.0778045654297,-348.93597412109375,133.8074951171875,275.5626525878906,137.66441345214844,-491.29913330078125
313234.65957290685,190.61456298828125,-218.2804412841797,-212.2117919921875,-346.9260559082031,135.4107208251953,277.2223205566406,139.48495483398438,-489.53204345703125
313234.66357290687,193.03463745117188,-215.51165771484375,-209.65484619140625,-344.3716125488281,137.82579040527344,279.5364685058594,142.05140686035156,-486.90362548828125
313234.6675729068,192.70489501953125,-215.97828674316406,-210.02854919433594,-344.8102722167969,137.37814331054688,278.950927734375,141.85806274414062,-487.1749267578125
313234.67157290684,190.45819091796875,-218.1865234375,-212.23577880859375,-347.1683654785156,135.60305786132812,277.1083984375,139.65982055664062,-489.2877197265625
313234.67557290685,188.74656677246094,-219.878173828125,-213.9818878173828,-348.8785095214844,134.11474609375,275.8299255371094,137.76783752441406,-491.0777893066406
313234.67957290687,190.5396270751953,-218.18801879882812,-212.2137908935547,-346.8760986328125,135.52911376953125,277.4136657714844,139.44049072265625,-489.4341125488281
313234.6835729068,192.86227416992188,-215.78993225097656,-209.80271911621094,-344.3865966796875,137.8302764892578,279.72381591796875,141.82708740234375,-487.0285339355469
313234.68757290684,192.50405883789062,-215.87637329101562,-210.09298706054688,-344.7138366699219,137.66390991210938,279.5184631347656,141.52581787109375,-487.2138977050781
313234.69157290686,190.33828735351562,-218.16004943847656,-212.32321166992188,-347.0035095214844,135.4416961669922,277.20831298828125,139.3605499267578,-489.2652587890625
313234.6955729069,188.5806884765625,-219.986083984375,-214.09429931640625,-348.8955078125,133.63014221191406,275.21990966796875,137.58847045898438,-490.9968566894531
313234.69957290683,190.4696807861328,-218.23448181152344,-212.2832489013672,-346.94854736328125,135.05050659179688,276.7257080078125,139.4195098876953,-489.3426818847656
313234.70357290684,192.88475036621094,-215.79542541503906,-209.9056396484375,-344.4580383300781,137.3436737060547,279.26318359375,141.89453125,-487.0500183105469
313234.70757290686,192.400146484375,-216.13665771484375,-210.24537658691406,-344.91717529296875,137.271728515625,279.11480712890625,141.62124633789062,-487.3083190917969
313234.7115729069,190.3118133544922,-218.38885498046875,-212.39065551757812,-347.1808776855469,135.3372802734375,277.08990478515625,139.53392028808594,-489.4336242675781
313234.71557290683,188.7310791015625,-219.74127197265625,-213.9768829345703,-348.842529296875,133.8309783935547,275.56512451171875,137.82179260253906,-490.9973449707031
313234.71957290685,190.5546112060547,-218.1815185546875,-212.3157196044922,-347.0594787597656,135.29481506347656,277.14288330078125,139.5489044189453,-489.5829772949219
313234.72357290686,192.9197235107422,-215.79843139648438,-209.9451141357422,-344.64288330078125,137.70787048339844,279.6418762207031,142.00094604492188,-487.27484130859375
313234.7275729069,192.5440216064453,-216.15464782714844,-210.26585388183594,-345.02960205078125,137.51702880859375,279.3641052246094,141.67420959472656,-487.5411376953125
313234.73157290684,190.32180786132812,-218.22000122070312,-212.40264892578125,-347.2757873535156,135.48416137695312,277.19384765625,139.47047424316406,-489.6524353027344
313234.73557290685,188.4652862548828,-220.08250427246094,-214.27464294433594,-349.1997375488281,133.78701782226562,275.49517822265625,137.51153564453125,-491.52044677734375
313234.73957290687,190.50865173339844,-218.0446319580078,-212.2837371826172,-347.09893798828125,135.53961181640625,277.2427978515625,139.469970703125,-489.57049560546875
313234.7435729068,192.90724182128906,-215.54212951660156,-209.82321166992188,-344.5999450683594,137.8567657470703,279.5664367675781,141.9344940185547,-487.0559997558594
313234.74757290684,192.5475311279297,-215.84689331054688,-210.0889892578125,-344.9246826171875,137.7153778076172,279.48101806640625,141.72067260742188,-487.23236083984375
313234.75157290685,190.43870544433594,-218.01715087890625,-212.16732788085938,-347.07794189453125,135.58258056640625,277.31072998046875,139.664306640625,-489.1693115234375
313234.75557290687,188.56671142578125,-220.1259765625,-214.10678100585938,-349.0054016113281,133.58267211914062,275.30535888671875,137.638427734375,-491.1622314453125
313234.7595729068,190.36827087402344,-218.38536071777344,-212.31671142578125,-347.0090026855469,135.16390991210938,277.02496337890625,139.3820343017578,-489.4930725097656
313234.76357290684,192.88975524902344,-215.69052124023438,-209.78074645996094,-344.4580383300781,137.50454711914062,279.296142578125,142.0079345703125,-486.879150390625
313234.7675729068,192.4361114501953,-216.12367248535156,-210.18441772460938,-344.9001770019531,137.3656463623047,279.30364990234375,141.62425231933594,-487.2573547363281
313234.7715729068,190.34129333496094,-218.3533935546875,-212.31820678710938,-347.1219177246094,135.37623596191406,277.2572937011719,139.57489013671875,-489.3626708984375
313234.77557290683,188.6901092529297,-220.11497497558594,-214.04483032226562,-348.88800048828125,133.69508361816406,275.55914306640625,137.84877014160156,-491.07330322265625
313234.77957290685,190.71798706054688,-218.21749877929688,-212.21978759765625,-346.8796081542969,135.3018035888672,277.30474853515625,139.73126220703125,-489.4505920410156
313234.7835729068,193.1220703125,-215.8019256591797,-209.9031524658203,-344.4185791015625,137.4580841064453,279.4909973144531,142.1188507080078,-487.1649169921875
313234.7875729068,192.78182983398438,-216.19212341308594,-210.21939086914062,-344.8172607421875,137.0693817138672,279.0628356933594,141.9130096435547,-487.33477783203125
313234.79157290683,190.86436462402344,-218.2045135498047,-212.2113037109375,-346.9630432128906,135.40721130371094,277.35321044921875,139.9890594482422,-489.2857360839844
313234.79557290685,189.01535034179688,-220.08999633789062,-214.07481384277344,-348.84454345703125,133.68809509277344,275.653076171875,138.0336151123047,-491.1552429199219
313234.7995729068,190.7279815673828,-218.2909393310547,-212.29722595214844,-346.9360656738281,135.18389892578125,277.2228088378906,139.70578002929688,-489.4710693359375
313234.8035729068,193.14105224609375,-215.71800231933594,-209.7672576904297,-344.3341369628906,137.56149291992188,279.57891845703125,142.1873016357422,-486.89013671875
313234.80757290684,192.59698486328125,-216.0821990966797,-210.07749938964844,-344.66387939453125,137.2267608642578,279.101318359375,141.73666381835938,-487.0045471191406
313234.81157290685,190.41822814941406,-218.08709716796875,-212.2147979736328,-347.01849365234375,135.30679321289062,277.01995849609375,139.5813751220703,-489.076904296875
313234.81557290687,188.6471405029297,-220.01756286621094,-214.1802215576172,-349.08984375,133.45877075195312,275.1020202636719,137.6669158935547,-491.1312561035156
313234.8195729068,190.67552185058594,-218.0661163330078,-212.14634704589844,-346.90509033203125,135.45318603515625,277.313232421875,139.6263427734375,-489.33917236328125
313234.82357290684,193.0970916748047,-215.79742431640625,-209.79173278808594,-344.4575500488281,137.68939208984375,279.6448669433594,142.07337951660156,-487.0559997558594
313234.82757290686,192.59048461914062,-216.23707580566406,-210.28533935546875,-344.97613525390625,137.32318115234375,279.2137145996094,141.60076904296875,-487.4027404785156
313234.83157290687,190.50216674804688,-218.38136291503906,-212.3372039794922,-347.0519714355469,135.483154296875,277.3836669921875,139.50643920898438,-489.4161376953125
313234.8355729068,188.7995147705078,-219.85069274902344,-213.98287963867188,-348.77459716796875,133.90191650390625,275.7559814453125,137.7728271484375,-491.04681396484375
313234.83957290684,190.89035034179688,-217.7913360595703,-211.95750427246094,-346.6477966308594,135.67050170898438,277.63348388671875,139.87265014648438,-489.1108703613281
313234.84357290686,193.28993225097656,-215.45120239257812,-209.57191467285156,-344.2751770019531,138.01513671875,280.0055847167969,142.34217834472656,-486.7587585449219
313234.8475729069,192.8472900390625,-215.79144287109375,-209.9056396484375,-344.7378234863281,137.637939453125,279.4195556640625,142.04591369628906,-486.94659423828125
313234.85157290683,190.7464599609375,-217.90524291992188,-211.94500732421875,-346.85113525390625,135.6425323486328,277.442138671875,139.9420928955078,-488.87506103515625
313234.85557290685,188.9219207763672,-219.91664123535156,-213.8744659423828,-348.73712158203125,133.7825164794922,275.7235107421875,137.94769287109375,-490.86895751953125
313234.85957290686,190.71148681640625,-218.3394012451172,-212.2347869873047,-346.967041015625,135.20237731933594,277.2577819824219,139.70278930664062,-489.443115234375
313234.8635729069,193.22198486328125,-215.75096130371094,-209.79522705078125,-344.5714416503906,137.55899047851562,279.5509338378906,142.3311767578125,-487.0030517578125
313234.8675729069,192.7218780517578,-216.10818481445312,-210.21240234375,-345.0720520019531,137.4171142578125,279.32861328125,141.8695526123047,-487.32080078125
313234.87157290685,190.6815185546875,-218.1790313720703,-212.25326538085938,-347.1543884277344,135.5511016845703,277.48858642578125,139.7822265625,-489.3152160644531
313234.87557290687,188.93092346191406,-220.01156616210938,-214.08230590820312,-349.01690673828125,133.85195922851562,275.9103698730469,137.9162139892578,-491.211181640625
313234.8795729069,190.5146484375,-218.62716674804688,-212.5745086669922,-347.4131774902344,135.17440795898438,277.3337097167969,139.5079345703125,-489.8492736816406
313234.8835729069,192.99166870117188,-216.00726318359375,-210.02255249023438,-344.8492431640625,137.5864715576172,279.7108154296875,142.0853729248047,-487.33477783203125
313234.88757290685,192.81930541992188,-215.7859344482422,-210.072509765625,-344.9861145019531,137.59796142578125,279.5524597167969,141.9884490966797,-487.22137451171875
313234.89157290687,190.7264862060547,-217.88775634765625,-212.1163787841797,-347.1239013671875,135.6855010986328,277.4811096191406,139.88064575195312,-489.1698303222656
313234.8955729069,188.801025390625,-219.9735870361328,-214.1382598876953,-349.1053161621094,133.74703979492188,275.5226745605469,137.76133728027344,-491.2631530761719
313234.8995729069,190.7224884033203,-218.10658264160156,-212.2407684326172,-346.9685363769531,135.57208251953125,277.5989990234375,139.56988525390625,-489.5470275878906
313234.90357290686,192.93621826171875,-215.8069305419922,-209.94561767578125,-344.61041259765625,137.81878662109375,279.8901672363281,141.87205505371094,-487.2788391113281
313234.9075729069,192.87525939941406,-216.05572509765625,-210.19691467285156,-344.9646301269531,137.63943481445312,279.58990478515625,141.8061065673828,-487.5326232910156
313234.9115729069,190.90533447265625,-218.37088012695312,-212.34568786621094,-347.2273254394531,135.67950439453125,277.6204833984375,139.8061981201172,-489.75286865234375
313234.9155729069,188.8959503173828,-220.40174865722656,-214.3740692138672,-349.35614013671875,133.65211486816406,275.5401611328125,137.70437622070312,-491.8186950683594
313234.91957290686,190.6580352783203,-218.4902801513672,-212.5165557861328,-347.4206848144531,135.2383575439453,277.1353759765625,139.44998168945312,-489.9871826171875
313234.9235729069,193.44580078125,-215.5106658935547,-209.63136291503906,-344.4925231933594,138.24745178222656,280.2663879394531,142.2822265625,-487.1439514160156
313234.9275729069,193.06710815429688,-215.8244171142578,-209.96060180664062,-344.9046936035156,138.0336151123047,280.01708984375,142.00144958496094,-487.38824462890625
313234.9315729069,190.84738159179688,-218.2244873046875,-212.21279907226562,-347.2957763671875,135.7989044189453,277.7179260253906,139.84967041015625,-489.49005126953125
313234.93557290686,189.2126922607422,-219.76425170898438,-213.84849548339844,-348.8785095214844,134.16970825195312,276.26556396484375,138.0186309814453,-491.1417541503906
313234.9395729069,190.79942321777344,-218.2264862060547,-212.19032287597656,-347.0085144042969,135.44769287109375,277.63848876953125,139.58486938476562,-489.6014709472656
313234.9435729069,193.28993225097656,-215.5756072998047,-209.65184020996094,-344.47052001953125,137.7138671875,279.791748046875,142.2107696533203,-487.0135498046875
313234.9475729069,193.01014709472656,-215.88536071777344,-209.94960021972656,-344.8652038574219,137.38414001464844,279.34912109375,142.04591369628906,-487.1844177246094
313234.95157290687,191.16763305664062,-217.64495849609375,-211.7176971435547,-346.72772216796875,135.9282989501953,277.8932800292969,140.23135375976562,-488.83709716796875
313234.9555729069,189.34507751464844,-219.67433166503906,-213.61317443847656,-348.6546936035156,134.13873291015625,276.1721496582031,138.31239318847656,-490.78753662109375
313234.9595729069,190.7999267578125,-218.1900177001953,-212.15634155273438,-347.11041259765625,135.3018035888672,277.2717590332031,139.77023315429688,-489.4505920410156
313234.9635729069,193.20350646972656,-215.5865936279297,-209.67083740234375,-344.52899169921875,137.72486877441406,279.7652893066406,142.26722717285156,-486.9371032714844
313234.96757290687,193.0276336669922,-215.9528045654297,-209.9291229248047,-344.7523193359375,137.61495971679688,279.78826904296875,142.10435485839844,-487.1869201660156
313234.9715729069,191.1451416015625,-217.97268676757812,-211.8685760498047,-346.74920654296875,135.7489471435547,277.9262390136719,140.1884002685547,-489.06689453125
313234.9755729069,189.5144500732422,-219.65634155273438,-213.51824951171875,-348.4308776855469,134.0368194580078,276.13818359375,138.42430114746094,-490.68310546875
313234.9795729069,191.21759033203125,-218.08360290527344,-211.85308837890625,-346.61981201171875,135.45167541503906,277.58203125,140.0914764404297,-489.1318664550781
313234.9835729069,193.5157470703125,-215.6270751953125,-209.52894592285156,-344.2662048339844,137.68939208984375,279.7308044433594,142.49105834960938,-486.7677307128906
313234.9875729069,193.2010040283203,-215.67303466796875,-209.74977111816406,-344.4870300292969,137.63943481445312,279.7158203125,142.19329833984375,-486.8616638183594
313234.9915729069,191.1021728515625,-217.8507843017578,-211.79063415527344,-346.59332275390625,135.79090881347656,277.82232666015625,140.12094116210938,-488.7981262207031
313234.9955729069,189.2556610107422,-219.67433166503906,-213.67613220214844,-348.5782470703125,133.96636962890625,275.8748779296875,138.22496032714844,-490.7085876464844
313234.9995729069,191.25106811523438,-217.8238067626953,-211.8076171875,-346.56085205078125,135.68199157714844,277.70343017578125,140.1349334716797,-488.99945068359375
313235.0035729069,193.67611694335938,-215.42872619628906,-209.44100952148438,-344.1797790527344,138.06109619140625,280.12799072265625,142.62744140625,-486.6842956542969
313235.0075729069,193.30291748046875,-215.68801879882812,-209.7957305908203,-344.6219177246094,137.9052276611328,279.9106750488281,142.31918334960938,-487.0065612792969
313235.0115729069,191.1576385498047,-218.03614807128906,-212.0069580078125,-346.91058349609375,135.82537841796875,277.82232666015625,140.09246826171875,-489.19879150390625
313235.0155729069,189.23667907714844,-219.86268615722656,-213.84449768066406,-348.74810791015625,133.92840576171875,275.99578857421875,138.06658935546875,-490.96636962890625
313235.0195729069,190.8993377685547,-217.9871826171875,-212.06541442871094,-346.8686218261719,135.34925842285156,277.41864013671875,139.76522827148438,-489.21728515625
313235.0235729069,193.49476623535156,-215.5431365966797,-209.56141662597656,-344.31414794921875,137.64942932128906,279.7577819824219,142.3666534423828,-486.7982177734375
313235.0275729069,193.11207580566406,-215.83790588378906,-209.85818481445312,-344.7358093261719,137.5230255126953,279.5489501953125,142.14083862304688,-486.95458984375
313235.0315729069,191.0672149658203,-217.66543579101562,-211.81112670898438,-346.7557067871094,135.74244689941406,277.7319030761719,140.0899658203125,-488.7481689453125
313235.0355729069,189.2861328125,-219.63986206054688,-213.7235870361328,-348.6926574707031,133.7425537109375,275.6600646972656,138.1425323486328,-490.63116455078125
313235.0395729069,190.9528045654297,-218.1055908203125,-212.13136291503906,-346.9420471191406,135.16091918945312,277.1998291015625,139.7912139892578,-489.19329833984375
313235.04357290687,193.30491638183594,-215.54513549804688,-209.6933135986328,-344.5224914550781,137.49105834960938,279.435546875,142.3166961669922,-486.7772216796875
313235.0475729069,192.77284240722656,-215.955810546875,-210.12896728515625,-345.1045227050781,137.22726440429688,278.929443359375,141.90052795410156,-487.17041015625
313235.0515729069,190.58859252929688,-218.08859252929688,-212.21778869628906,-347.1708679199219,135.461181640625,277.2597961425781,139.70228576660156,-489.18731689453125
313235.0555729069,189.09278869628906,-219.77874755859375,-213.7935333251953,-348.605712890625,133.9184112548828,276.03375244140625,138.06109619140625,-490.80999755859375
313235.0595729069,190.67501831054688,-218.13006591796875,-212.2097930908203,-346.9185791015625,135.34776306152344,277.4836120605469,139.6243438720703,-489.3052062988281
313235.0635729069,193.27194213867188,-215.5086669921875,-209.6593475341797,-344.3116760253906,137.7998046875,279.8816833496094,142.2642364501953,-486.8152160644531
313235.06757290685,192.97967529296875,-215.8518829345703,-210.00357055664062,-344.7463073730469,137.61744689941406,279.66485595703125,142.01193237304688,-487.1279602050781
313235.07157290686,191.0782012939453,-217.89524841308594,-212.02745056152344,-346.9035949707031,135.67999267578125,277.6204833984375,140.13194274902344,-489.0214538574219
313235.0755729069,189.5609130859375,-219.69931030273438,-213.71359252929688,-348.5962219238281,134.00184631347656,276.0562438964844,138.47726440429688,-490.7675476074219
313235.0795729069,191.43690490722656,-217.67742919921875,-211.7406768798828,-346.5273742675781,135.87135314941406,277.9742126464844,140.31979370117188,-488.9275207519531
313235.08357290685,193.6266632080078,-215.12796020507812,-209.39205932617188,-344.1607971191406,138.10406494140625,280.0405578613281,142.6254425048828,-486.55841064453125
313235.08757290686,193.22048950195312,-215.57861328125,-209.8082275390625,-344.5799560546875,137.77333068847656,279.69384765625,142.2532501220703,-486.8481750488281
313235.0915729069,191.06121826171875,-217.85528564453125,-211.99346923828125,-346.85711669921875,135.82688903808594,277.75238037109375,140.04400634765625,-489.04443359375
313235.0955729069,189.28663635253906,-219.62686157226562,-213.74856567382812,-348.75311279296875,134.14572143554688,276.0002746582031,138.2344512939453,-490.8244934082031
313235.09957290685,191.0802001953125,-217.61697387695312,-211.8915557861328,-346.7856750488281,135.84286499023438,277.8368225097656,139.998046875,-489.06640625
313235.10357290687,193.45179748535156,-215.5281524658203,-209.727783203125,-344.4470520019531,137.94369506835938,280.05206298828125,142.2662353515625,-487.0675048828125
313235.1075729069,193.10858154296875,-216.02574157714844,-210.16842651367188,-344.93115234375,137.61544799804688,279.65338134765625,141.9644775390625,-487.4776611328125
313235.1115729069,190.9043426513672,-218.26246643066406,-212.25726318359375,-347.0819396972656,135.6200408935547,277.60699462890625,139.80120849609375,-489.5360412597656
313235.1155729069,189.2431640625,-219.71978759765625,-213.77505493164062,-348.6756591796875,134.00784301757812,275.92034912109375,138.11654663085938,-490.9019470214844
313235.1195729069,191.0731964111328,-217.9082489013672,-211.97048950195312,-346.6882629394531,135.4471893310547,277.47509765625,139.8741455078125,-489.1898193359375
313235.1235729069,193.57220458984375,-215.42723083496094,-209.54942321777344,-344.11431884765625,137.91671752929688,280.1489562988281,142.35015869140625,-486.901123046875
313235.1275729069,193.2229766845703,-215.9508056640625,-209.99107360839844,-344.6034240722656,137.70388793945312,279.9456481933594,142.09286499023438,-487.2868347167969
313235.1315729069,191.18011474609375,-217.9097442626953,-212.03643798828125,-346.84814453125,135.6735076904297,277.6774597167969,140.11744689941406,-489.1907958984375
313235.1355729069,189.30361938476562,-219.80722045898438,-213.91493225097656,-348.8170471191406,133.8374786376953,275.84442138671875,138.15151977539062,-491.13824462890625
313235.1395729069,191.01075744628906,-218.14205932617188,-212.25926208496094,-347.0604553222656,135.36724853515625,277.39117431640625,139.80270385742188,-489.59698486328125
313235.1435729069,193.33889770507812,-215.79443359375,-209.88265991210938,-344.5299987792969,137.61795043945312,279.77777099609375,142.17030334472656,-487.244873046875
313235.1475729069,193.31240844726562,-215.72349548339844,-209.80223083496094,-344.43206787109375,137.73585510253906,279.9975891113281,142.2337646484375,-487.0360412597656
313235.1515729069,191.19610595703125,-217.7533721923828,-211.85208129882812,-346.58184814453125,135.9217987060547,278.013671875,140.11944580078125,-488.9979553222656
313235.1555729069,189.15423583984375,-219.8511962890625,-213.95040893554688,-348.7940673828125,133.96836853027344,275.95233154296875,138.04261779785156,-491.0693054199219
313235.1595729069,191.171630859375,-218.09010314941406,-212.2113037109375,-346.9820251464844,135.5316162109375,277.57403564453125,139.93260192871094,-489.5570068359375
313235.1635729069,193.7775421142578,-215.50416564941406,-209.70030212402344,-344.4610290527344,138.09007263183594,280.3368225097656,142.60845947265625,-487.17791748046875
313235.1675729069,193.4168243408203,-215.83790588378906,-210.02703857421875,-344.8832092285156,138.0421142578125,280.2818603515625,142.40013122558594,-487.5426330566406
313235.1715729069,191.3424835205078,-217.8038330078125,-212.02395629882812,-346.9845275878906,136.31748962402344,278.390380859375,140.3342742919922,-489.46258544921875
313235.1755729069,189.45948791503906,-219.7113037109375,-213.88046264648438,-348.8655090332031,134.40951538085938,276.5143737792969,138.31838989257812,-491.2466735839844
313235.1795729069,191.36346435546875,-217.9087371826172,-211.99996948242188,-346.8281555175781,135.99624633789062,278.2449951171875,140.1649169921875,-489.5390319824219
313235.1835729069,193.82699584960938,-215.16893005371094,-209.46949768066406,-344.3321533203125,138.39833068847656,280.545166015625,142.74984741210938,-486.9740905761719
313235.1875729069,193.43081665039062,-215.5446319580078,-209.87466430664062,-344.7977600097656,137.98765563964844,279.93914794921875,142.4765625,-487.244873046875
313235.1915729069,191.09518432617188,-217.9097442626953,-212.20480346679688,-347.1568908691406,135.79290771484375,277.7134094238281,140.0699920654297,-489.443115234375
313235.1955729069,189.43551635742188,-219.54893493652344,-213.83999633789062,-348.7725830078125,134.33956909179688,276.3489990234375,138.22247314453125,-491.0767822265625
313235.1995729069,191.09619140625,-217.78184509277344,-212.09788513183594,-346.9340515136719,135.79940795898438,277.82232666015625,139.92210388183594,-489.3681640625
313235.2035729069,193.4183349609375,-215.49566650390625,-209.74676513671875,-344.54547119140625,137.92669677734375,280.0165710449219,142.35665893554688,-487.0390319824219
313235.2075729069,193.3518829345703,-215.6350555419922,-209.8192138671875,-344.64739990234375,137.89523315429688,280.0645446777344,142.37265014648438,-487.0874938964844
313235.2115729069,191.37596130371094,-217.65444946289062,-211.80862426757812,-346.78070068359375,135.9927520751953,278.0341491699219,140.43919372558594,-488.9519958496094
313235.2155729069,189.24966430664062,-219.68032836914062,-213.8634796142578,-348.9384765625,133.75453186035156,275.61260986328125,138.24993896484375,-490.96038818359375
313235.21957290685,190.98727416992188,-217.874267578125,-212.0789031982422,-347.0010070800781,135.30479431152344,277.3222351074219,139.97006225585938,-489.24676513671875
313235.22357290686,193.58119201660156,-215.25286865234375,-209.5139617919922,-344.3306579589844,137.9756622314453,280.0650329589844,142.5140380859375,-486.8092041015625
313235.2275729069,193.34738159179688,-215.42373657226562,-209.6598358154297,-344.42205810546875,138.0875701904297,280.2049255371094,142.2752227783203,-486.8886413574219
313235.2315729069,191.06021118164062,-217.56451416015625,-211.83360290527344,-346.6423034667969,136.02822875976562,278.0521545410156,140.00254821777344,-488.8710632324219
313235.23557290685,189.08828735351562,-219.32211303710938,-213.7850341796875,-348.68316650390625,134.1232452392578,275.9463195800781,137.98765563964844,-490.7355651855469
313235.23957290687,190.98377990722656,-217.4396209716797,-211.92552185058594,-346.7392272949219,135.7829132080078,277.6994323730469,139.85516357421875,-489.02093505859375
313235.2435729069,193.46678161621094,-215.029052734375,-209.48048400878906,-344.2212219238281,138.15501403808594,280.114013671875,142.34317016601562,-486.685302734375
313235.2475729069,193.14004516601562,-215.38026428222656,-209.80772399902344,-344.5589599609375,138.0511016845703,279.9996032714844,142.04640197753906,-486.998046875
313235.25157290685,190.84988403320312,-217.7213897705078,-212.07740783691406,-346.9365539550781,136.0182342529297,277.9017639160156,139.7467498779297,-489.19580078125
313235.25557290687,188.93690490722656,-219.6448516845703,-213.9539031982422,-348.8370361328125,134.12974548339844,275.9862976074219,137.73934936523438,-491.01934814453125
313235.2595729069,190.73646545410156,-217.8792724609375,-212.17982482910156,-346.8760986328125,135.59706115722656,277.5085754394531,139.45098876953125,-489.34918212890625
313235.2635729069,193.1685333251953,-215.46170043945312,-209.70579528808594,-344.2896728515625,137.875244140625,279.76678466796875,141.9884490966797,-486.9046325683594
313235.26757290686,193.00665283203125,-215.31231689453125,-209.81471252441406,-344.5469665527344,137.73086547851562,279.5993957519531,141.94798278808594,-486.8087158203125
313235.2715729069,190.8238983154297,-217.74436950683594,-212.12136840820312,-346.9605407714844,135.5121307373047,277.41217041015625,139.7802276611328,-489.0834045410156
313235.2755729069,189.3111114501953,-219.4365234375,-213.758056640625,-348.6841735839844,133.98785400390625,275.8853759765625,138.2544403076172,-490.71258544921875
313235.2795729069,190.91282653808594,-217.8797607421875,-212.19480895996094,-347.0784606933594,135.34226989746094,277.3437194824219,139.9311065673828,-489.2337646484375
313235.28357290686,193.23997497558594,-215.49317932128906,-209.93162536621094,-344.7627868652344,137.6114501953125,279.7752685546875,142.25424194335938,-487.0799865722656
313235.2875729069,193.12506103515625,-215.69300842285156,-210.16893005371094,-344.9966125488281,137.40711975097656,279.49298095703125,142.12583923339844,-487.2438659667969
313235.2915729069,190.98977661132812,-217.88375854492188,-212.31121826171875,-347.2492980957031,135.4322052001953,277.43963623046875,140.06948852539062,-489.3207092285156
313235.2955729069,189.1482391357422,-219.96310424804688,-214.28564453125,-349.2641906738281,133.61215209960938,275.6920471191406,138.1175537109375,-491.38653564453125
313235.29957290686,191.08668518066406,-218.09109497070312,-212.4021453857422,-347.21832275390625,135.28131103515625,277.42816162109375,139.96957397460938,-489.6714172363281
313235.3035729069,193.6431427001953,-215.4262237548828,-209.73828125,-344.3721008300781,138.0346221923828,280.40576171875,142.48855590820312,-487.07000732421875
313235.3075729069,193.53024291992188,-215.59909057617188,-209.87266540527344,-344.52947998046875,138.14852905273438,280.5601501464844,142.39263916015625,-487.1949157714844
313235.3115729069,191.24256896972656,-217.87026977539062,-212.08590698242188,-346.9625549316406,135.8098907470703,277.92974853515625,140.20687866210938,-489.2322692871094
313235.31557290687,189.25765991210938,-219.73428344726562,-214.0358428955078,-349.0163879394531,133.80699157714844,275.86590576171875,138.134033203125,-491.1302490234375
313235.3195729069,190.9477996826172,-218.11007690429688,-212.43612670898438,-347.2273254394531,135.3342742919922,277.5455627441406,139.73974609375,-489.744873046875
313235.3235729069,193.369873046875,-215.7709503173828,-210.0640106201172,-344.725341796875,137.73486328125,280.03955078125,142.1927947998047,-487.44970703125
313235.3275729069,193.0146484375,-216.17413330078125,-210.4407196044922,-345.1394958496094,137.4315948486328,279.705322265625,141.91201782226562,-487.6615295410156
313235.33157290687,190.59408569335938,-218.34140014648438,-212.7538604736328,-347.53558349609375,135.2403564453125,277.4001770019531,139.49295043945312,-489.86724853515625
313235.3355729069,188.95838928222656,-219.8321990966797,-214.28314208984375,-349.1018371582031,133.7350616455078,275.78594970703125,137.77381896972656,-491.3760681152344
313235.3395729069,190.90634155273438,-217.92323303222656,-212.3212127685547,-346.9930114746094,135.5421142578125,277.7069091796875,139.61285400390625,-489.65093994140625
313235.34357290686,193.12255859375,-215.66554260253906,-210.1099853515625,-344.6988525390625,137.68040466308594,279.8791809082031,141.8925323486328,-487.42822265625
313235.3475729069,192.6944122314453,-215.88037109375,-210.439208984375,-345.113525390625,137.5984649658203,279.7792663574219,141.6087646484375,-487.6210632324219
313235.3515729069,190.61207580566406,-218.10108947753906,-212.5904998779297,-347.4676513671875,135.51263427734375,277.50958251953125,139.56588745117188,-489.6534423828125
313235.3555729069,188.89144897460938,-220.04702758789062,-214.4100341796875,-349.32916259765625,133.50624084472656,275.46270751953125,137.71487426757812,-491.47796630859375
313235.35957290686,190.81541442871094,-218.10508728027344,-212.51055908203125,-347.246826171875,135.0714874267578,277.1658630371094,139.6103515625,-489.6529235839844
313235.3635729069,193.16702270507812,-215.7264862060547,-210.14344787597656,-344.7622985839844,137.37265014648438,279.5993957519531,142.04591369628906,-487.3357849121094
313235.36757290683,192.9521942138672,-215.76596069335938,-210.3078155517578,-345.0365905761719,137.5879669189453,279.84222412109375,141.91452026367188,-487.5056457519531
313235.37157290685,190.7139892578125,-218.12356567382812,-212.57200622558594,-347.47613525390625,135.41920471191406,277.378173828125,139.67230224609375,-489.72637939453125
313235.37557290687,189.102783203125,-219.87716674804688,-214.23318481445312,-349.13629150390625,133.68409729003906,275.62408447265625,137.8932342529297,-491.361572265625
313235.3795729069,191.064208984375,-218.06312561035156,-212.37966918945312,-347.06744384765625,135.3192901611328,277.5300598144531,139.77272033691406,-489.6334533691406
313235.38357290684,193.5242462158203,-215.39524841308594,-209.8916473388672,-344.52398681640625,137.6304473876953,279.9381408691406,142.33717346191406,-487.12396240234375
313235.38757290685,193.2159881591797,-215.6595458984375,-210.12796020507812,-344.82525634765625,137.65142822265625,279.9975891113281,142.1133575439453,-487.3243103027344
313235.39157290687,191.12916564941406,-217.65695190429688,-212.13136291503906,-346.9140930175781,135.83937072753906,278.0956115722656,139.99855041503906,-489.2352600097656
313235.3955729069,189.43002319335938,-219.5139617919922,-213.84849548339844,-348.6217041015625,133.95338439941406,276.0897216796875,138.22096252441406,-490.9054260253906
313235.39957290684,191.3639678955078,-217.56451416015625,-211.94300842285156,-346.5848388671875,135.48965454101562,277.6474609375,140.1349334716797,-488.9849548339844
313235.40357290686,193.67462158203125,-215.28634643554688,-209.68081665039062,-344.2427062988281,137.7168731689453,279.9091491699219,142.5500030517578,-486.79522705078125
313235.4075729069,193.26744079589844,-215.8069305419922,-210.08749389648438,-344.7113342285156,137.43309020996094,279.489501953125,142.25674438476562,-487.0774841308594
313235.4115729069,191.12965393066406,-217.56402587890625,-212.11038208007812,-346.89208984375,135.6360321044922,277.58453369140625,140.1034698486328,-488.969970703125
313235.41557290684,189.0952911376953,-219.4654998779297,-214.04183959960938,-348.8325500488281,133.83348083496094,275.8808898925781,137.97616577148438,-490.9084167480469
313235.41957290686,191.1666259765625,-217.59300231933594,-212.10888671875,-346.71124267578125,135.46966552734375,277.58251953125,139.97406005859375,-489.06341552734375
313235.4235729069,193.60467529296875,-215.30032348632812,-209.78125,-344.3226623535156,137.72186279296875,279.8597106933594,142.444091796875,-486.76873779296875
313235.4275729069,193.16653442382812,-215.8343963623047,-210.2793426513672,-344.91766357421875,137.4066162109375,279.4585266113281,142.09686279296875,-487.2188720703125
313235.43157290685,191.07220458984375,-217.72389221191406,-212.2847442626953,-347.0804443359375,135.5615997314453,277.4726257324219,140.0899658203125,-489.1353454589844
313235.43557290686,189.24417114257812,-219.80772399902344,-214.20770263671875,-348.9479675292969,133.5671844482422,275.5311584472656,138.09506225585938,-491.1257629394531
313235.4395729069,191.20909118652344,-217.97119140625,-212.3102264404297,-346.8281555175781,135.1149444580078,277.2547912597656,139.9460906982422,-489.3521728515625
313235.44357290684,193.67811584472656,-215.48468017578125,-209.8332061767578,-344.2552185058594,137.4680633544922,279.7223205566406,142.44308471679688,-486.9066162109375
313235.44757290685,193.219482421875,-215.93331909179688,-210.3128204345703,-344.7847900390625,137.1403350830078,279.36260986328125,142.06089782714844,-487.29132080078125
313235.45157290687,191.16412353515625,-218.13006591796875,-212.46510314941406,-347.0205078125,135.23135375976562,277.4371337890625,139.9515838623047,-489.4206237792969
313235.4555729069,189.23916625976562,-220.19491577148438,-214.4170379638672,-348.99542236328125,133.3118896484375,275.52117919921875,137.92420959472656,-491.4579772949219
313235.45957290684,191.18911743164062,-218.11158752441406,-212.50106811523438,-346.9955139160156,134.9475860595703,277.2327880859375,139.80470275878906,-489.60845947265625
313235.46357290685,193.85047912597656,-215.2803497314453,-209.7632598876953,-344.2202453613281,137.50303649902344,279.834228515625,142.53701782226562,-486.8251953125
313235.4675729068,193.41082763671875,-215.7010040283203,-210.13345336914062,-344.6868591308594,137.24725341796875,279.4880065917969,142.19778442382812,-487.1853942871094
313235.4715729068,190.9812774658203,-218.154052734375,-212.5270538330078,-347.1553955078125,135.0395050048828,277.20233154296875,139.7862091064453,-489.5035400390625
313235.47557290684,189.23167419433594,-219.9516143798828,-214.2556610107422,-348.9229736328125,133.27542114257812,275.3667907714844,137.9686737060547,-491.1407470703125
313235.47957290686,191.24755859375,-217.9946746826172,-212.292236328125,-346.82666015625,135.00953674316406,277.2033386230469,139.91610717773438,-489.3621826171875
313235.4835729068,193.90643310546875,-215.21139526367188,-209.65834045410156,-344.20025634765625,137.55699157714844,279.7492980957031,142.6349334716797,-486.7732238769531
313235.48757290683,193.60816955566406,-215.48867797851562,-209.99806213378906,-344.6014404296875,137.3126983642578,279.4830017089844,142.43809509277344,-487.01654052734375
313235.49157290685,191.35397338867188,-217.77835083007812,-212.2797393798828,-346.9955139160156,135.25233459472656,277.3412170410156,140.23435974121094,-489.1728210449219
313235.49557290686,189.51544189453125,-219.69131469726562,-214.13975524902344,-348.9239807128906,133.47625732421875,275.50518798828125,138.31588745117188,-491.0503234863281
313235.4995729068,191.42991638183594,-218.04513549804688,-212.36767578125,-346.9845275878906,135.0605010986328,277.2757568359375,140.05101013183594,-489.5205383300781
313235.50357290683,193.8519744873047,-215.4626922607422,-209.89215087890625,-344.4765319824219,137.54400634765625,279.8217468261719,142.530517578125,-487.10845947265625
313235.50757290685,193.434814453125,-215.68702697753906,-210.2483673095703,-344.9146728515625,137.358154296875,279.5504455566406,142.2092742919922,-487.3837585449219
313235.51157290686,190.94480895996094,-218.51475524902344,-212.86427307128906,-347.55157470703125,134.90762329101562,277.0904235839844,139.663818359375,-490.0101623535156
313235.5155729068,189.1787109375,-220.32081604003906,-214.7527618408203,-349.4310607910156,133.1210479736328,275.2663879394531,137.76683044433594,-491.8986511230469
313235.51957290684,191.0262451171875,-218.32241821289062,-212.8902587890625,-347.441162109375,134.771728515625,276.95751953125,139.57337951660156,-490.1600341796875
313235.52357290685,193.8205108642578,-215.42323303222656,-209.98057556152344,-344.52899169921875,137.5540008544922,279.6953430175781,142.44708251953125,-487.288818359375
313235.52757290687,193.42881774902344,-215.91534423828125,-210.3762664794922,-345.02459716796875,137.2157745361328,279.1947326660156,142.17080688476562,-487.6220703125
313235.5315729068,190.81640625,-218.6661376953125,-213.01914978027344,-347.8303527832031,134.59286499023438,276.3255310058594,139.64633178710938,-490.1260681152344
313235.53557290684,188.93490600585938,-220.20590209960938,-214.85069274902344,-349.71484375,132.99765014648438,274.83221435546875,137.63194274902344,-491.8971252441406
313235.53957290686,191.21759033203125,-217.91123962402344,-212.55752563476562,-347.07794189453125,135.34576416015625,277.71441650390625,139.75323486328125,-489.8252868652344
313235.5435729068,193.96438598632812,-215.16293334960938,-209.74827575683594,-344.1832580566406,138.0710906982422,280.51116943359375,142.61544799804688,-487.0789794921875
313235.5475729068,193.47128295898438,-215.7889404296875,-210.34979248046875,-344.8512268066406,137.51553344726562,279.9191589355469,142.18679809570312,-487.5736083984375
313235.55157290684,191.107177734375,-218.24546813964844,-212.71640014648438,-347.3492431640625,135.09646606445312,277.2877502441406,139.84466552734375,-489.78533935546875
313235.55557290686,189.2786407470703,-219.7942352294922,-214.39056396484375,-349.0718688964844,133.6476287841797,275.8084411621094,137.87274169921875,-491.5074462890625
313235.5595729068,191.38894653320312,-217.54702758789062,-212.16732788085938,-346.6827697753906,135.82138061523438,278.16204833984375,139.9136199951172,-489.4371032714844
313235.56357290683,193.71209716796875,-215.18841552734375,-209.83819580078125,-344.27117919921875,137.9691619873047,280.3228454589844,142.34317016601562,-487.11346435546875
313235.5675729068,193.40733337402344,-215.72848510742188,-210.16793823242188,-344.6269226074219,137.6629180908203,280.0250549316406,142.12335205078125,-487.4461975097656
313235.5715729068,191.32949829101562,-217.83779907226562,-212.2402801513672,-346.8701171875,135.6645050048828,277.8967590332031,140.03451538085938,-489.4935607910156
313235.5755729068,189.70030212402344,-219.5369415283203,-214.0128631591797,-348.7191467285156,133.7860107421875,275.9103698730469,138.2439422607422,-491.24066162109375
313235.57957290683,191.7236785888672,-217.74037170410156,-212.07440185546875,-346.6263122558594,135.40171813964844,277.5890197753906,140.289306640625,-489.5035400390625
313235.5835729068,194.1942138671875,-215.37327575683594,-209.63685607910156,-344.1427917480469,137.83827209472656,280.0860290527344,142.79281616210938,-487.16741943359375
313235.5875729068,193.7850341796875,-215.59458923339844,-209.9990692138672,-344.71832275390625,137.49354553222656,279.5064697265625,142.5375213623047,-487.3597717285156
313235.5915729068,191.78762817382812,-217.3372039794922,-211.84010314941406,-346.6747741699219,135.84136962890625,277.80084228515625,140.57159423828125,-488.9969482421875
313235.59557290684,189.9111328125,-219.20120239257812,-213.67462158203125,-348.4918212890625,134.1057586669922,276.14166259765625,138.59066772460938,-490.8299865722656
313235.5995729068,191.61227416992188,-217.6209716796875,-212.02593994140625,-346.6932678222656,135.46067810058594,277.55255126953125,140.29031372070312,-489.3047180175781
313235.6035729068,194.20619201660156,-214.86866760253906,-209.3361053466797,-343.9449462890625,138.03062438964844,280.2054138183594,142.99664306640625,-486.62335205078125
313235.6075729068,193.9274139404297,-214.81622314453125,-209.3850555419922,-344.11431884765625,138.09007263183594,280.1084899902344,142.85125732421875,-486.49395751953125
313235.61157290684,191.71568298339844,-217.08990478515625,-211.57630920410156,-346.3810119628906,135.8408660888672,277.59552001953125,140.67449951171875,-488.5053405761719
313235.61557290686,189.82020568847656,-219.1617431640625,-213.57371520996094,-348.29248046875,133.83047485351562,275.6465759277344,138.6920928955078,-490.4907531738281
313235.6195729068,191.61976623535156,-217.42063903808594,-211.8535919189453,-346.3810119628906,135.2963104248047,277.2502746582031,140.43170166015625,-488.89703369140625
313235.6235729068,194.15673828125,-214.89015197753906,-209.29762268066406,-343.79156494140625,137.8232879638672,279.85321044921875,142.9906463623047,-486.35955810546875
313235.62757290684,193.68661499023438,-215.21739196777344,-209.67132568359375,-344.337646484375,137.77581787109375,279.6828308105469,142.67291259765625,-486.66131591796875
313235.63157290686,191.581298828125,-217.27725219726562,-211.85208129882812,-346.60333251953125,135.67601013183594,277.5135803222656,140.5995635986328,-488.7341613769531
313235.6355729068,189.91712951660156,-219.0792999267578,-213.563720703125,-348.2610168457031,133.98985290527344,275.9518127441406,138.7610321044922,-490.42730712890625
313235.63957290683,191.646240234375,-217.37417602539062,-211.79513549804688,-346.32305908203125,135.51962280273438,277.6484680175781,140.47816467285156,-488.775146484375
313235.64357290685,194.0403289794922,-214.80023193359375,-209.3321075439453,-343.7975769042969,137.77232360839844,279.84320068359375,143.01263427734375,-486.26715087890625
313235.64757290686,193.5297393798828,-215.28733825683594,-209.76576232910156,-344.35162353515625,137.3826446533203,279.29266357421875,142.64393615722656,-486.6243591308594
313235.6515729068,191.4823760986328,-217.40614318847656,-211.7836456298828,-346.4544372558594,135.55259704589844,277.40765380859375,140.6145477294922,-488.52984619140625
313235.65557290684,189.89215087890625,-219.07481384277344,-213.46080017089844,-348.088134765625,133.90892028808594,275.89385986328125,138.8214874267578,-490.24395751953125
313235.65957290685,191.90603637695312,-217.10488891601562,-211.52484130859375,-346.03729248046875,135.56808471679688,277.6189880371094,140.70648193359375,-488.52484130859375
313235.66357290687,194.58889770507812,-214.361572265625,-208.85498046875,-343.3774108886719,138.29591369628906,280.3717956542969,143.42430114746094,-485.9294128417969
313235.6675729068,194.28013610839844,-214.6683349609375,-209.14825439453125,-343.79705810546875,138.22845458984375,280.26788330078125,143.2019805908203,-486.1582336425781
313235.67157290684,191.9350128173828,-216.98098754882812,-211.43841552734375,-346.2326354980469,136.13214111328125,277.9657287597656,140.8818359375,-488.35296630859375
313235.67557290685,190.0869903564453,-218.73208618164062,-213.29443359375,-348.1365966796875,134.362548828125,276.21112060546875,138.94837951660156,-490.16802978515625
313235.67957290687,192.02743530273438,-216.95849609375,-211.43292236328125,-346.12371826171875,135.91830444335938,277.8822937011719,140.80140686035156,-488.4753723144531
313235.6835729068,194.5039520263672,-214.46949768066406,-208.92242431640625,-343.53826904296875,138.2114715576172,280.14996337890625,143.37583923339844,-485.9324035644531
313235.68757290684,193.93641662597656,-214.81871032714844,-209.4175262451172,-344.12030029296875,137.78831481933594,279.6083984375,142.92770385742188,-486.2526550292969
313235.69157290686,191.73716735839844,-217.07740783691406,-211.67771911621094,-346.48992919921875,135.75094604492188,277.5660400390625,140.69998168945312,-488.4678955078125
313235.6955729069,190.07200622558594,-218.86697387695312,-213.45030212402344,-348.25,133.85646057128906,275.654052734375,138.887939453125,-490.2159729003906
313235.69957290683,191.8705596923828,-217.16883850097656,-211.65924072265625,-346.28509521484375,135.4002227783203,277.3901672363281,140.67800903320312,-488.5393371582031
313235.70357290684,194.3580780029297,-214.66583251953125,-209.16073608398438,-343.69366455078125,137.9486846923828,280.04156494140625,143.2179718017578,-486.0672912597656
313235.70757290686,194.0298309326172,-214.59739685058594,-209.37457275390625,-344.0198974609375,138.01113891601562,279.9441223144531,143.0101318359375,-486.1911926269531
313235.7115729069,191.8455810546875,-216.87606811523438,-211.60028076171875,-346.3490295410156,135.93679809570312,277.7813720703125,140.85037231445312,-488.2950134277344
313235.7155729069,189.9486083984375,-219.0128631591797,-213.5567169189453,-348.34942626953125,133.80650329589844,275.66705322265625,138.89442443847656,-490.283935546875
313235.71957290685,191.75115966796875,-217.22479248046875,-211.73817443847656,-346.320068359375,135.4311981201172,277.5775146484375,140.6090545654297,-488.63873291015625
313235.72357290686,194.12925720214844,-214.74078369140625,-209.2936248779297,-343.8030700683594,137.75534057617188,279.8606872558594,143.09356689453125,-486.2012023925781
313235.7275729069,193.80001831054688,-215.2308807373047,-209.6718292236328,-344.28167724609375,137.32168579101562,279.28814697265625,142.83877563476562,-486.4629821777344
313235.7315729069,191.50885009765625,-217.5705108642578,-211.92202758789062,-346.6188049316406,135.3142852783203,277.1338806152344,140.5241241455078,-488.6297607421875
313235.73557290685,189.7117919921875,-219.1057891845703,-213.6551513671875,-348.4333801269531,133.7450408935547,275.5176696777344,138.5831756591797,-490.4363098144531
313235.73957290687,191.5363311767578,-217.23228454589844,-211.76515197753906,-346.3440246582031,135.40921020507812,277.4381408691406,140.38473510742188,-488.69219970703125
313235.7435729069,193.89344787597656,-214.90664672851562,-209.41552734375,-343.92596435546875,137.64492797851562,279.7792663574219,142.810302734375,-486.383544921875
313235.7475729069,193.6741180419922,-215.4981689453125,-209.86767578125,-344.3876037597656,137.22576904296875,279.3181457519531,142.5430145263672,-486.8401794433594
313235.75157290685,191.494873046875,-217.72288513183594,-212.00596618652344,-346.59832763671875,135.21487426757812,277.2872619628906,140.39073181152344,-488.86505126953125
313235.75557290687,189.86666870117188,-219.34909057617188,-213.68661499023438,-348.4688415527344,133.55520629882812,275.4961853027344,138.7135772705078,-490.5527038574219
313235.7595729069,191.70968627929688,-217.29373168945312,-211.796630859375,-346.49090576171875,135.3177947998047,277.48309326171875,140.5351104736328,-488.7251892089844
313235.7635729069,194.03182983398438,-214.8696746826172,-209.40203857421875,-343.9349670410156,137.6629180908203,279.8726806640625,142.90672302246094,-486.3580627441406
313235.76757290686,193.7450714111328,-214.97158813476562,-209.64935302734375,-344.2102355957031,137.46707153320312,279.53497314453125,142.68539428710938,-486.4429931640625
313235.7715729069,191.65972900390625,-217.03793334960938,-211.67422485351562,-346.33905029296875,135.68199157714844,277.829833984375,140.56858825683594,-488.3804626464844
313235.7755729069,189.95858764648438,-218.8494873046875,-213.4003448486328,-348.05615234375,133.98684692382812,276.14617919921875,138.7105712890625,-490.1235656738281
313235.7795729069,191.7896270751953,-216.9065399169922,-211.5343475341797,-346.03179931640625,135.5550994873047,277.6594543457031,140.5531005859375,-488.29052734375
313235.78357290686,194.15524291992188,-214.4020538330078,-209.0468292236328,-343.49981689453125,137.9322052001953,280.0700378417969,143.0311279296875,-485.8240051269531
313235.7875729069,193.5457305908203,-214.68931579589844,-209.44601440429688,-343.9194641113281,137.48605346679688,279.5209655761719,142.49404907226562,-486.0443115234375
313235.7915729069,191.4229278564453,-216.71170043945312,-211.5003662109375,-346.0282897949219,135.4346923828125,277.2552795410156,140.32627868652344,-487.93280029296875
313235.7955729069,189.77273559570312,-218.4702911376953,-213.19252014160156,-347.8148498535156,133.8399658203125,275.6605529785156,138.6206512451172,-489.6524353027344
313235.79957290686,191.53382873535156,-216.84210205078125,-211.50086975097656,-345.9778137207031,135.44468688964844,277.38067626953125,140.34226989746094,-488.1556396484375
313235.8035729069,193.80801391601562,-214.2621612548828,-209.0578155517578,-343.4983215332031,137.81678771972656,279.7502746582031,142.7763214111328,-485.6866149902344
313235.8075729069,193.5477294921875,-214.5144500732422,-209.27813720703125,-343.7076416015625,137.5625,279.5104675292969,142.54501342773438,-485.7730407714844
313235.8115729069,191.3409881591797,-216.81361389160156,-211.5218505859375,-345.94635009765625,135.3372802734375,277.1563720703125,140.2543487548828,-487.9098205566406
