lsl_time,C3,C4,CZ,CP3,CP4,CPZ,FC3,FC4
313197.3555729067,157.1748046875,-232.0224609375,-212.56251525878906,-347.677978515625,145.82289123535156,273.8909606933594,134.0583038330078,-492.74395751953125
313197.3595729067,155.83837890625,-233.7485809326172,-214.16073608398438,-349.3011779785156,144.27662658691406,272.4551086425781,132.52651977539062,-494.4316101074219
313197.3635729067,156.9375,-232.0854034423828,-212.51356506347656,-347.7334289550781,145.78392028808594,273.929931640625,133.91241455078125,-492.8368835449219
313197.3675729067,158.72607421875,-229.87667846679688,-210.32180786132812,-345.5172119140625,147.89273071289062,275.91986083984375,136.09266662597656,-490.5946960449219
313197.3715729067,158.99984741210938,-229.86917114257812,-210.37376403808594,-345.48773193359375,147.9311981201172,276.0402526855469,136.27752685546875,-490.5032653808594
313197.3755729067,157.05140686035156,-232.4021453857422,-212.80581665039062,-347.947265625,145.56759643554688,273.7480773925781,134.06129455566406,-492.80889892578125
313197.3795729067,155.52862548828125,-234.04383850097656,-214.36956787109375,-349.6124267578125,143.89492797851562,272.0819091796875,132.48605346679688,-494.34619140625
313197.38357290666,156.82159423828125,-232.03445434570312,-212.51954650878906,-347.7738952636719,145.6390380859375,273.78607177734375,134.039306640625,-492.654541015625
313197.3875729067,158.8574676513672,-229.84719848632812,-210.1854248046875,-345.4147644042969,147.89022827148438,275.8858947753906,136.3374786376953,-490.42132568359375
313197.3915729067,158.71707153320312,-230.1239776611328,-210.5361328125,-345.8883972167969,147.46507263183594,275.4332275390625,136.20358276367188,-490.628662109375
313197.3955729067,156.83258056640625,-232.37867736816406,-212.75636291503906,-348.1760559082031,145.32229614257812,273.4178466796875,134.1127471923828,-492.7479553222656
313197.39957290667,155.719970703125,-233.45082092285156,-213.8300018310547,-349.2357177734375,144.28512573242188,272.44012451171875,132.83177185058594,-493.8171081542969
313197.4035729067,157.11135864257812,-231.3619842529297,-211.81411743164062,-347.1668701171875,146.05470275878906,274.0838317871094,134.4664764404297,-491.750244140625
313197.4075729067,158.6271514892578,-229.65135192871094,-209.99107360839844,-345.28338623046875,147.85626220703125,275.8484191894531,136.2340545654297,-490.0301208496094
313197.4115729067,158.41981506347656,-230.1279754638672,-210.503662109375,-345.8294372558594,147.4276123046875,275.286865234375,135.96177673339844,-490.45330810546875
313197.41557290667,156.840576171875,-232.30972290039062,-212.63595581054688,-347.87982177734375,145.3607635498047,273.3699035644531,133.9938507080078,-492.5955810546875
313197.4195729067,155.73196411132812,-233.68313598632812,-213.95339965820312,-349.1387939453125,144.08677673339844,272.3077392578125,132.6079559326172,-494.0414123535156
313197.4235729067,157.12135314941406,-231.99298095703125,-212.1973114013672,-347.311767578125,145.88284301757812,274.1382751464844,134.18170166015625,-492.50067138671875
313197.42757290666,159.35206604003906,-229.35958862304688,-209.75425720214844,-344.9126892089844,148.38583374023438,276.40447998046875,136.6122589111328,-490.0940856933594
313197.4315729067,159.297607421875,-229.86917114257812,-210.158447265625,-345.2808837890625,148.10256958007812,276.1156921386719,136.44088745117188,-490.45379638671875
313197.4355729067,157.55850219726562,-232.097900390625,-212.24777221679688,-347.3347473144531,146.0896759033203,274.28814697265625,134.469970703125,-492.50714111328125
313197.4395729067,156.18960571289062,-233.4752960205078,-213.7415771484375,-348.7845764160156,144.60086059570312,272.9012756347656,132.85276794433594,-494.0329284667969
313197.44357290666,157.41661071777344,-231.85858154296875,-212.119873046875,-347.10394287109375,146.13763427734375,274.41754150390625,134.23965454101562,-492.589599609375
313197.4475729067,159.5039520263672,-229.533447265625,-209.73828125,-344.6778564453125,148.49925231933594,276.6732482910156,136.55030822753906,-490.2689514160156
313197.4515729067,159.18820190429688,-230.11997985839844,-210.31332397460938,-345.2119445800781,147.90621948242188,276.07373046875,136.15162658691406,-490.7465515136719
313197.4555729067,157.44808959960938,-232.13536071777344,-212.38966369628906,-347.3502197265625,145.89382934570312,274.12030029296875,134.22366333007812,-492.55010986328125
313197.45957290666,156.15711975097656,-233.58621215820312,-213.85049438476562,-348.8485412597656,144.45848083496094,272.7833557128906,132.7063751220703,-494.0614013671875
313197.4635729067,157.57398986816406,-231.82611083984375,-212.04342651367188,-347.07745361328125,146.1761016845703,274.43353271484375,134.40402221679688,-492.41021728515625
313197.4675729067,159.1787109375,-229.9676055908203,-210.1189727783203,-345.20245361328125,148.13853454589844,276.2930603027344,136.3594512939453,-490.5587158203125
313197.4715729067,159.23165893554688,-230.21839904785156,-210.4571990966797,-345.4912109375,147.8802490234375,276.07373046875,136.22357177734375,-490.9164123535156
313197.47557290667,157.56849670410156,-232.42013549804688,-212.6284637451172,-347.7449035644531,145.67051696777344,273.8929748535156,134.30909729003906,-492.9727783203125
313197.4795729067,156.18060302734375,-233.90945434570312,-214.06932067871094,-349.251708984375,144.26763916015625,272.60150146484375,132.78831481933594,-494.4186096191406
313197.4835729067,157.5270233154297,-231.97549438476562,-212.2407684326172,-347.4266662597656,146.06869506835938,274.403564453125,134.33657836914062,-492.7504577636719
313197.4875729067,159.27513122558594,-229.9556121826172,-210.18292236328125,-345.4542541503906,148.25894165039062,276.44842529296875,136.39991760253906,-490.8219909667969
313197.49157290667,159.0782928466797,-230.33680725097656,-210.5626220703125,-345.9153747558594,147.95318603515625,276.0322570800781,136.21656799316406,-491.0617980957031
313197.4955729067,157.3951416015625,-232.4086456298828,-212.5959930419922,-347.9522399902344,145.88134765625,274.036865234375,134.3320770263672,-492.9877624511719
313197.4995729067,156.21307373046875,-233.50677490234375,-213.8350067138672,-349.208740234375,144.6028594970703,272.8183288574219,132.95367431640625,-494.2397766113281
313197.5035729067,157.5924835205078,-231.70321655273438,-211.93801879882812,-347.2967834472656,146.3359832763672,274.48651123046875,134.57887268066406,-492.503662109375
313197.5075729067,159.3225860595703,-229.5459442138672,-209.7742462158203,-345.113525390625,148.5252227783203,276.5903015136719,136.5897674560547,-490.33489990234375
313197.5115729067,159.1717071533203,-229.98658752441406,-210.1889190673828,-345.52117919921875,148.07508850097656,276.0887145996094,136.38043212890625,-490.6146545410156
313197.5155729067,157.45309448242188,-232.13186645507812,-212.24227905273438,-347.6255187988281,145.9872589111328,274.05035400390625,134.5379180908203,-492.51214599609375
313197.5195729067,156.38143920898438,-233.27294921875,-213.47378540039062,-348.799560546875,144.7157745361328,272.94122314453125,133.23695373535156,-493.78863525390625
313197.52357290674,157.7973175048828,-231.58580017089844,-211.72018432617188,-346.924560546875,146.34347534179688,274.6119079589844,134.75674438476562,-492.19439697265625
313197.5275729067,159.4020233154297,-229.53794860839844,-209.7347869873047,-344.9476623535156,148.46327209472656,276.6827392578125,136.6072540283203,-490.31890869140625
313197.5315729067,159.21917724609375,-229.85818481445312,-210.13795471191406,-345.37982177734375,148.2289581298828,276.3919677734375,136.42340087890625,-490.6411437988281
313197.5355729067,157.79281616210938,-231.83160400390625,-212.10238647460938,-347.3861999511719,146.4259033203125,274.5989074707031,134.76123046875,-492.51715087890625
313197.53957290674,156.4279022216797,-233.47779846191406,-213.69461059570312,-349.013916015625,144.83018493652344,273.06512451171875,133.27891540527344,-494.12884521484375
313197.5435729067,157.59347534179688,-231.94851684570312,-212.1593475341797,-347.462646484375,146.23605346679688,274.40655517578125,134.6673126220703,-492.63555908203125
313197.5475729067,159.32159423828125,-229.7202911376953,-210.06051635742188,-345.4482421875,148.34437561035156,276.2950439453125,136.69769287109375,-490.5327453613281
313197.5515729067,159.27462768554688,-230.11798095703125,-210.40225219726562,-345.7539978027344,148.10606384277344,276.148681640625,136.5303192138672,-490.84747314453125
313197.55557290674,157.7758331298828,-231.91903686523438,-212.2887420654297,-347.6075134277344,146.302001953125,274.5499572753906,134.77322387695312,-492.6165771484375
313197.5595729067,156.1746063232422,-233.69412231445312,-214.00436401367188,-349.3766174316406,144.43350219726562,272.68243408203125,133.04510498046875,-494.2997131347656
313197.5635729067,157.28921508789062,-232.26576232910156,-212.4381103515625,-347.8013610839844,145.71298217773438,273.85650634765625,134.37704467773438,-492.86285400390625
313197.56757290673,159.1647186279297,-230.03355407714844,-210.20989990234375,-345.53167724609375,148.03912353515625,276.20263671875,136.4818572998047,-490.7895202636719
313197.57157290675,159.30960083007812,-230.06053161621094,-210.36627197265625,-345.7215270996094,148.2144775390625,276.4129638671875,136.50933837890625,-490.9753723144531
313197.5755729067,158.03411865234375,-232.10238647460938,-212.2942352294922,-347.70196533203125,146.38844299316406,274.68585205078125,134.8886260986328,-492.9188232421875
313197.5795729067,156.5248260498047,-233.5022735595703,-213.78753662109375,-349.3181457519531,144.95358276367188,273.2759704589844,133.26243591308594,-494.41162109375
313197.58357290673,157.64593505859375,-232.01345825195312,-212.15884399414062,-347.6255187988281,146.45437622070312,274.8182373046875,134.61135864257812,-492.966796875
313197.58757290675,159.54991149902344,-229.792236328125,-210.02154541015625,-345.4207763671875,148.63014221191406,276.925048828125,136.711181640625,-490.9269104003906
313197.5915729067,159.4429931640625,-230.050537109375,-210.36376953125,-345.74951171875,148.41331481933594,276.7381896972656,136.51882934570312,-491.1517333984375
313197.5955729067,157.73536682128906,-232.10739135742188,-212.39614868164062,-347.76239013671875,146.2855224609375,274.60791015625,134.58187866210938,-492.99176025390625
313197.59957290674,156.3179931640625,-233.63116455078125,-213.84849548339844,-349.1692810058594,144.5638885498047,272.8528137207031,132.9901580810547,-494.3232116699219
313197.60357290675,157.60296630859375,-231.7336883544922,-212.012451171875,-347.2912902832031,146.23756408691406,274.45452880859375,134.43849182128906,-492.589599609375
313197.6075729067,159.3315887451172,-229.48399353027344,-209.77725219726562,-344.9521484375,148.4373016357422,276.5868225097656,136.35995483398438,-490.4078369140625
313197.6115729067,159.35806274414062,-229.64085388183594,-209.95510864257812,-345.1295166015625,148.33787536621094,276.4014587402344,136.35595703125,-490.456298828125
313197.61557290674,157.8677520751953,-231.83160400390625,-212.0604248046875,-347.3482360839844,146.23805236816406,274.23919677734375,134.5529022216797,-492.4986572265625
313197.61957290675,156.39942932128906,-233.35289001464844,-213.7021026611328,-349.0643615722656,144.71726989746094,272.9042663574219,132.9097137451172,-494.1953125
313197.6235729067,157.724365234375,-231.57681274414062,-211.8900604248047,-347.2378234863281,146.5358123779297,274.76177978515625,134.48196411132812,-492.5671081542969
313197.6275729067,159.42750549316406,-229.34959411621094,-209.7527618408203,-345.1769714355469,148.6756134033203,276.7427062988281,136.51882934570312,-490.4717712402344
313197.63157290674,159.38253784179688,-229.84320068359375,-210.1534423828125,-345.5107116699219,148.28842163085938,276.4619140625,136.38743591308594,-490.7725524902344
313197.6355729067,157.9591827392578,-231.69821166992188,-212.0574188232422,-347.4461669921875,146.42691040039062,274.7098083496094,134.76522827148438,-492.54412841796875
313197.6395729067,156.6732177734375,-233.12957763671875,-213.499267578125,-348.91796875,144.9046173095703,273.31494140625,133.35386657714844,-493.9280090332031
313197.64357290673,157.68040466308594,-231.7801513671875,-212.02944946289062,-347.36572265625,146.1851043701172,274.5689392089844,134.56039428710938,-492.6460266113281
313197.64757290675,159.5044403076172,-229.72479248046875,-209.89515686035156,-345.2274169921875,148.23345947265625,276.5478515625,136.7386474609375,-490.5282287597656
313197.6515729067,159.33758544921875,-230.2518768310547,-210.395751953125,-345.6800537109375,147.74485778808594,276.0857238769531,136.5478057861328,-490.9079284667969
313197.6555729067,157.6089630126953,-232.40016174316406,-212.55502319335938,-347.8023681640625,145.69049072265625,274.1172790527344,134.56639099121094,-492.9253234863281
313197.65957290673,156.23805236816406,-233.8360137939453,-214.0403289794922,-349.3321533203125,144.2941131591797,272.79736328125,133.06008911132812,-494.4755859375
313197.66357290675,157.89073181152344,-231.91204833984375,-212.07240295410156,-347.3477478027344,146.0237274169922,274.4285583496094,134.8441619873047,-492.7249755859375
313197.6675729067,159.74176025390625,-229.90565490722656,-209.9361114501953,-345.2159423828125,148.10206604003906,276.39947509765625,136.93099975585938,-490.6900939941406
313197.6715729067,159.5634002685547,-230.1889190673828,-210.2793426513672,-345.55316162109375,147.8212890625,276.1661682128906,136.6811981201172,-490.8944396972656
313197.6755729067,157.90322875976562,-232.31472778320312,-212.3871612548828,-347.6419982910156,145.71746826171875,274.123779296875,134.70127868652344,-492.8743591308594
313197.6795729067,156.50184631347656,-233.671142578125,-213.8419952392578,-349.0953369140625,144.33258056640625,272.8038330078125,133.05709838867188,-494.357666015625
313197.6835729067,157.58998107910156,-232.05242919921875,-212.15084838867188,-347.3562316894531,145.93380737304688,274.28265380859375,134.35556030273438,-492.827880859375
313197.6875729067,159.44149780273438,-229.58990478515625,-209.792236328125,-345.0025939941406,148.17550659179688,276.3744812011719,136.52532958984375,-490.3448791503906
313197.6915729067,159.25564575195312,-229.90414428710938,-210.1749267578125,-345.3957824707031,147.82827758789062,275.9808044433594,136.35696411132812,-490.5916748046875
313197.6955729067,157.8267822265625,-231.7566680908203,-212.0089569091797,-347.2862854003906,146.01223754882812,274.2037353515625,134.65281677246094,-492.2933349609375
313197.6995729067,156.7306671142578,-233.20550537109375,-213.37686157226562,-348.6357116699219,144.6498260498047,273.0386657714844,133.29141235351562,-493.7256774902344
313197.7035729067,157.9791717529297,-231.53684997558594,-211.6617431640625,-346.87762451171875,146.2175750732422,274.6798400878906,134.77272033691406,-492.1224670410156
313197.7075729067,159.57289123535156,-229.75726318359375,-209.77574157714844,-344.98712158203125,148.04861450195312,276.37249755859375,136.67970275878906,-490.241455078125
313197.7115729067,159.24465942382812,-229.9141387939453,-210.2213897705078,-345.5931396484375,147.67840576171875,275.77947998046875,136.45338439941406,-490.5042419433594
313197.7155729067,157.79031372070312,-231.85508728027344,-212.1468505859375,-347.49310302734375,145.80740356445312,274.0633239746094,134.707275390625,-492.3387756347656
313197.71957290673,156.63075256347656,-233.30242919921875,-213.50177001953125,-348.7705993652344,144.38853454589844,272.7913513183594,133.25494384765625,-493.6732177734375
313197.7235729067,157.87574768066406,-231.32101440429688,-211.60928344726562,-346.8521423339844,146.205078125,274.56292724609375,134.68978881835938,-491.8831481933594
313197.7275729067,159.4015350341797,-229.41554260253906,-209.65634155273438,-344.8861999511719,148.1035614013672,276.28704833984375,136.5098419189453,-489.9242248535156
313197.7315729067,159.254150390625,-229.6498565673828,-209.9990692138672,-345.1624755859375,147.73886108398438,275.84539794921875,136.30149841308594,-490.07611083984375
313197.73557290673,157.57398986816406,-231.65174865722656,-212.06341552734375,-347.204345703125,145.64503479003906,273.8065490722656,134.41551208496094,-491.8951416015625
313197.7395729067,156.25155639648438,-233.0626220703125,-213.45480346679688,-348.6117248535156,144.17620849609375,272.4486389160156,132.89971923828125,-493.2785339355469
313197.7435729067,157.5709991455078,-231.1986083984375,-211.5738067626953,-346.7826843261719,145.87034606933594,274.06634521484375,134.45147705078125,-491.4659729003906
313197.7475729067,159.23765563964844,-229.21121215820312,-209.55592346191406,-344.8322448730469,147.8782501220703,275.91986083984375,136.4583740234375,-489.5260314941406
313197.7515729067,159.01284790039062,-229.7292938232422,-210.00906372070312,-345.2773742675781,147.3816375732422,275.47320556640625,136.24005126953125,-489.8053283691406
313197.7555729067,157.5170440673828,-231.91104125976562,-212.05792236328125,-347.2568054199219,145.4107208251953,273.692626953125,134.45947265625,-491.7532653808594
313197.75957290665,156.22607421875,-233.14056396484375,-213.5012664794922,-348.8090515136719,144.11924743652344,272.4481201171875,133.01663208007812,-493.23907470703125
313197.76357290667,157.44509887695312,-231.559326171875,-211.87606811523438,-347.15789794921875,145.827392578125,274.1537780761719,134.44998168945312,-491.8931579589844
313197.7675729067,159.21717834472656,-229.53195190429688,-209.80972290039062,-345.0975341796875,148.00814819335938,276.27008056640625,136.5587921142578,-489.9432067871094
313197.7715729067,159.19619750976562,-229.85269165039062,-210.19491577148438,-345.4522399902344,147.6239471435547,275.8808898925781,136.38743591308594,-490.18701171875
313197.77557290666,157.3286895751953,-232.1698455810547,-212.4615936279297,-347.742919921875,145.39373779296875,273.7231140136719,134.31808471679688,-492.384765625
313197.7795729067,156.1166534423828,-233.3948516845703,-213.80252075195312,-349.12530517578125,144.2201690673828,272.593505859375,132.90321350097656,-493.82708740234375
313197.7835729067,157.6324462890625,-231.49537658691406,-211.77914428710938,-347.0659484863281,146.20208740234375,274.4945068359375,134.57188415527344,-492.0555114746094
313197.7875729067,159.038818359375,-229.8426971435547,-209.9840850830078,-345.21942138671875,147.7638397216797,275.8634033203125,136.24404907226562,-490.2914123535156
313197.79157290666,158.952392578125,-230.0260467529297,-210.2588653564453,-345.5301818847656,147.3976287841797,275.3617858886719,136.15411376953125,-490.33587646484375
313197.7955729067,157.54551696777344,-231.80563354492188,-212.1068878173828,-347.46063232421875,145.6065673828125,273.627197265625,134.50543212890625,-492.0719909667969
313197.7995729067,156.3964385986328,-233.25347900390625,-213.4528045654297,-348.7236328125,144.33457946777344,272.6734619140625,133.0930633544922,-493.5373229980469
313197.8035729067,157.8242950439453,-231.52035522460938,-211.5792999267578,-346.8091735839844,146.16610717773438,274.6243896484375,134.68479919433594,-491.93609619140625
313197.80757290666,159.4514923095703,-229.4720001220703,-209.6653289794922,-344.9346618652344,148.13803100585938,276.4844055175781,136.5787811279297,-490.07611083984375
313197.8115729067,159.40103149414062,-229.9161376953125,-210.0635223388672,-345.2734069824219,147.75634765625,276.15716552734375,136.4493865966797,-490.38336181640625
313197.8155729067,157.8352813720703,-231.87957763671875,-212.05093383789062,-347.3392333984375,145.81089782714844,274.2027282714844,134.7417449951172,-492.2493591308594
313197.8195729067,156.8675537109375,-232.7248992919922,-213.11508178710938,-348.518798828125,144.7522430419922,273.1305847167969,133.5487060546875,-493.2620544433594
313197.8235729067,158.14053344726562,-231.14065551757812,-211.37196350097656,-346.7457275390625,146.3199920654297,274.6473693847656,134.98306274414062,-491.6588439941406
313197.8275729067,159.50045776367188,-229.4635009765625,-209.62086486816406,-344.9901123046875,148.0336151123047,276.29705810546875,136.6162567138672,-489.9666748046875
313197.8315729067,159.32559204101562,-229.86318969726562,-210.10247802734375,-345.43927001953125,147.43910217285156,275.6525573730469,136.40042114257812,-490.2124938964844
313197.8355729067,157.96168518066406,-231.58131408691406,-211.88156127929688,-347.11590576171875,145.74395751953125,274.1497802734375,134.793212890625,-491.8631591796875
313197.8395729067,156.452880859375,-233.19801330566406,-213.43382263183594,-348.6431884765625,144.3805389404297,272.9322509765625,133.1070556640625,-493.5183410644531
313197.8435729067,157.6234588623047,-231.48089599609375,-211.6642303466797,-346.9185791015625,146.12014770507812,274.5584411621094,134.58038330078125,-491.8232116699219
313197.8475729067,159.49795532226562,-229.27365112304688,-209.54443359375,-344.8861999511719,148.15103149414062,276.3799743652344,136.77113342285156,-489.7004089355469
313197.8515729067,159.1951904296875,-229.98158264160156,-210.20790100097656,-345.59564208984375,147.54901123046875,275.8224182128906,136.45237731933594,-490.3633728027344
313197.85557290673,157.8932342529297,-231.7132110595703,-211.98147583007812,-347.35821533203125,145.83688354492188,274.2421875,134.869140625,-492.0280456542969
313197.8595729067,156.8785400390625,-232.61398315429688,-213.00616455078125,-348.46832275390625,144.82269287109375,273.3314208984375,133.65011596679688,-493.0552062988281
313197.8635729067,158.01463317871094,-230.99827575683594,-211.34898376464844,-346.8306579589844,146.39942932128906,274.74578857421875,134.99703979492188,-491.58038330078125
313197.8675729067,159.43650817871094,-229.23068237304688,-209.54592895507812,-344.9801330566406,148.16452026367188,276.4034729003906,136.69818115234375,-489.7678527832031
313197.87157290673,159.22767639160156,-229.63087463378906,-209.90664672851562,-345.221923828125,147.702392578125,276.041748046875,136.45887756347656,-489.9781799316406
313197.8755729067,158.10206604003906,-231.2865447998047,-211.60128784179688,-346.881103515625,146.0302276611328,274.3785705566406,134.99154663085938,-491.4974670410156
313197.8795729067,156.581787109375,-232.91323852539062,-213.24197387695312,-348.5357971191406,144.30960083007812,272.6959228515625,133.31239318847656,-493.0867004394531
313197.88357290666,157.76034545898438,-231.1656494140625,-211.48138427734375,-346.7582092285156,145.91781616210938,274.23370361328125,134.77423095703125,-491.4320068359375
313197.8875729067,159.3101043701172,-229.30563354492188,-209.57940673828125,-344.8027648925781,147.8587646484375,276.0697326660156,136.54380798339844,-489.5130615234375
313197.8915729067,159.14373779296875,-229.8651885986328,-210.08799743652344,-345.1834716796875,147.41961669921875,275.7514953613281,136.30349731445312,-489.9347229003906
313197.8955729067,157.6484375,-231.8450927734375,-212.20130920410156,-347.3387451171875,145.50564575195312,274.03387451171875,134.50743103027344,-492.0989685058594
313197.89957290667,156.62374877929688,-233.15304565429688,-213.42633056640625,-348.64019775390625,144.27113342285156,272.8782958984375,133.33587646484375,-493.3459777832031
313197.9035729067,157.84178161621094,-231.42294311523438,-211.63426208496094,-346.8901062011719,145.8578643798828,274.34661865234375,134.81568908691406,-491.67132568359375
313197.9075729067,159.41751098632812,-229.71031188964844,-209.7672576904297,-344.95166015625,147.5465087890625,275.9598083496094,136.60775756835938,-489.8837585449219
313197.9115729067,159.53941345214844,-229.84970092773438,-210.02005004882812,-345.15948486328125,147.42510986328125,275.8724060058594,136.6162567138672,-490.090576171875
313197.91557290667,158.26893615722656,-231.61927795410156,-211.8900604248047,-347.0329895019531,145.78392028808594,274.3481140136719,135.0380096435547,-491.9610900878906
313197.9195729067,156.90902709960938,-233.1670379638672,-213.4293212890625,-348.7306213378906,144.49993896484375,273.0836181640625,133.52272033691406,-493.5773010253906
313197.9235729067,158.12155151367188,-231.580810546875,-211.78164672851562,-347.1513977050781,146.194091796875,274.7008361816406,134.9890594482422,-492.1599426269531
313197.92757290666,159.51394653320312,-229.82821655273438,-210.03953552246094,-345.4137878417969,147.9307098388672,276.3520202636719,136.6876983642578,-490.4842834472656
313197.9315729067,159.5913848876953,-230.19041442871094,-210.3927459716797,-345.77349853515625,147.57449340820312,276.0292663574219,136.6542205810547,-490.7160949707031
313197.9355729067,158.37135314941406,-232.10289001464844,-212.23028564453125,-347.570068359375,145.84886169433594,274.5689392089844,135.09396362304688,-492.55462646484375
313197.9395729067,157.43960571289062,-232.79183959960938,-213.19900512695312,-348.5782470703125,145.01702880859375,273.7525939941406,133.9293975830078,-493.4249267578125
313197.94357290666,158.30540466308594,-231.3170166015625,-211.63125610351562,-347.0050048828125,146.40292358398438,274.8631896972656,135.04901123046875,-491.97259521484375
313197.9475729067,159.6618194580078,-229.55543518066406,-209.8087158203125,-345.1390075683594,148.06509399414062,276.35699462890625,136.67469787597656,-490.14105224609375
313197.9515729067,159.45848083496094,-230.02804565429688,-210.22189331054688,-345.4787292480469,147.59597778320312,275.99627685546875,136.41790771484375,-490.4548034667969
313197.9555729067,158.3973388671875,-231.54234313964844,-211.80313110351562,-347.02398681640625,146.0487060546875,274.60040283203125,135.02651977539062,-491.9385986328125
313197.95957290666,157.4081268310547,-232.72589111328125,-212.99517822265625,-348.23052978515625,144.9495849609375,273.5792236328125,133.80099487304688,-493.1971130371094
313197.9635729067,158.45977783203125,-231.2845458984375,-211.46640014648438,-346.7677001953125,146.35595703125,274.7642822265625,135.14892578125,-491.8072204589844
313197.9675729067,159.91860961914062,-229.49298095703125,-209.7038116455078,-345.0256042480469,148.047607421875,276.3634948730469,136.90252685546875,-490.10906982421875
313197.9715729067,159.7552490234375,-229.9591064453125,-210.19590759277344,-345.4482421875,147.57748413085938,276.1316833496094,136.65472412109375,-490.56219482421875
313197.97557290667,158.38633728027344,-231.8256072998047,-212.0499267578125,-347.30926513671875,145.7649383544922,274.4305419921875,135.0445098876953,-492.3138122558594
313197.9795729067,157.2787322998047,-233.01866149902344,-213.25796508789062,-348.54876708984375,144.6822967529297,273.39288330078125,133.7410430908203,-493.53082275390625
313197.9835729067,158.1250457763672,-231.56582641601562,-211.7351837158203,-347.0604553222656,146.0252227783203,274.5394592285156,134.93409729003906,-492.0470275878906
313197.9875729067,159.68679809570312,-229.5464324951172,-209.86517333984375,-345.1819763183594,147.86676025390625,276.1326904296875,136.71566772460938,-490.166015625
313197.99157290667,159.38404846191406,-230.13546752929688,-210.4582061767578,-345.6291198730469,147.38563537597656,275.7994384765625,136.29400634765625,-490.6686096191406
313197.9955729067,158.2229766845703,-231.68722534179688,-212.0499267578125,-347.17437744140625,145.73495483398438,274.28717041015625,134.87513732910156,-492.0790100097656
313197.9995729067,157.0903778076172,-232.744873046875,-213.262451171875,-348.5032958984375,144.51742553710938,273.01019287109375,133.60015869140625,-493.215576171875
313198.00357290666,158.20948791503906,-231.2665557861328,-211.65625,-346.8901062011719,146.22756958007812,274.6673583984375,134.955078125,-491.836181640625
313198.0075729067,159.70977783203125,-229.4829864501953,-209.8606719970703,-345.0910339355469,148.12454223632812,276.3879699707031,136.7131805419922,-490.1385498046875
313198.0115729067,159.71278381347656,-229.84669494628906,-210.23788452148438,-345.4747314453125,147.7048797607422,275.9498291015625,136.63473510742188,-490.4657897949219
313198.0155729067,158.50274658203125,-231.52635192871094,-211.95700073242188,-347.1593933105469,145.92330932617188,274.3006591796875,135.10595703125,-492.1064758300781
313198.01957290666,157.6194610595703,-232.48709106445312,-212.94821166992188,-348.0921325683594,145.1184539794922,273.7315979003906,133.86395263671875,-493.171630859375
313198.0235729067,158.39382934570312,-231.3634796142578,-211.67373657226562,-346.7527160644531,146.29600524902344,274.87969970703125,134.80918884277344,-492.1529235839844
313198.02757290663,159.64483642578125,-229.8801727294922,-210.08200073242188,-345.14349365234375,147.76632690429688,276.2305908203125,136.3864288330078,-490.5686950683594
313198.03157290665,159.771728515625,-229.90414428710938,-210.21939086914062,-345.3258361816406,147.60595703125,276.149658203125,136.4853515625,-490.57220458984375
313198.03557290667,158.44979858398438,-231.51536560058594,-211.95249938964844,-347.1229248046875,145.98526000976562,274.64288330078125,134.97357177734375,-492.1979064941406
313198.0395729067,157.1778106689453,-233.12657165527344,-213.43881225585938,-348.63720703125,144.55889892578125,273.2664794921875,133.5377197265625,-493.72216796875
313198.04357290664,158.3958282470703,-231.2770538330078,-211.66123962402344,-346.8970947265625,146.19110107421875,274.78326416015625,134.95358276367188,-491.9885559082031
313198.04757290665,160.1034698486328,-229.26165771484375,-209.6343536376953,-344.8487243652344,148.080078125,276.51287841796875,136.97296142578125,-489.9941711425781
313198.05157290667,159.879150390625,-229.84120178222656,-210.1874237060547,-345.4332580566406,147.47207641601562,275.846923828125,136.73065185546875,-490.4497985839844
313198.0555729067,158.5467071533203,-231.69921875,-212.01995849609375,-347.2782897949219,145.7554473876953,274.1712646484375,135.12094116210938,-492.2078857421875
313198.05957290664,157.7488555908203,-232.6874237060547,-212.96319580078125,-348.1540832519531,144.8022003173828,273.3948669433594,134.05979919433594,-493.1916198730469
313198.06357290666,158.89993286132812,-231.17713928222656,-211.34799194335938,-346.4349670410156,146.5623016357422,275.34429931640625,135.3182830810547,-491.8611755371094
313198.0675729067,160.33677673339844,-229.4010467529297,-209.67881774902344,-344.7952880859375,148.21397399902344,276.78515625,137.01193237304688,-490.20550537109375
313198.0715729067,160.0749969482422,-229.8481903076172,-210.16493225097656,-345.3138732910156,147.62245178222656,276.0787353515625,136.7191619873047,-490.5437316894531
313198.07557290664,158.76004028320312,-231.2760467529297,-211.5738067626953,-346.6702880859375,146.45388793945312,275.1219787597656,135.27232360839844,-491.8152160644531
313198.07957290666,157.66192626953125,-232.1378631591797,-212.615478515625,-347.8358459472656,145.50863647460938,274.102294921875,134.1142578125,-492.8553771972656
313198.0835729067,158.8479766845703,-230.94882202148438,-211.29153442382812,-346.50140380859375,146.6542205810547,275.1724548339844,135.3427734375,-491.67681884765625
313198.0875729067,160.30880737304688,-229.4060516357422,-209.76126098632812,-345.03009033203125,148.23846435546875,276.6722412109375,136.9324951171875,-490.2459716796875
313198.09157290665,159.99105834960938,-229.8227081298828,-210.26686096191406,-345.63311767578125,147.9057159423828,276.3984680175781,136.67269897460938,-490.71807861328125
313198.09557290666,158.50975036621094,-231.57830810546875,-211.9979705810547,-347.3826904296875,146.32948303222656,274.92913818359375,135.12594604492188,-492.40673828125
313198.0995729067,157.34716796875,-232.62747192382812,-213.17152404785156,-348.615234375,145.0819854736328,273.5702209472656,133.86395263671875,-493.4513854980469
313198.1035729067,158.6236572265625,-231.3684844970703,-211.74517822265625,-347.12841796875,146.31149291992188,274.8811950683594,135.16990661621094,-492.1849060058594
313198.10757290665,160.47216796875,-229.38856506347656,-209.73428344726562,-345.1415100097656,148.3114013671875,276.8595886230469,137.15081787109375,-490.2349548339844
313198.11157290667,160.25584411621094,-229.70330810546875,-210.05152893066406,-345.54766845703125,147.95217895507812,276.40447998046875,137.03042602539062,-490.37884521484375
313198.1155729067,158.51724243164062,-231.4709014892578,-211.92002868652344,-347.46014404296875,146.0951690673828,274.50347900390625,135.2638397216797,-492.1494445800781
313198.1195729067,157.4171142578125,-232.55352783203125,-213.0231475830078,-348.5247802734375,145.07199096679688,273.5772399902344,134.05130004882812,-493.23406982421875
313198.12357290665,158.75054931640625,-231.08621215820312,-211.49537658691406,-346.9835205078125,146.5033416748047,274.9756164550781,135.4202117919922,-491.77874755859375
313198.12757290667,160.4526824951172,-229.50497436523438,-209.8172149658203,-345.23193359375,148.06959533691406,276.56634521484375,137.1892852783203,-490.2174987792969
313198.1315729066,160.16091918945312,-230.05203247070312,-210.3128204345703,-345.66656494140625,147.74134826660156,276.2845458984375,136.862060546875,-490.8404846191406
313198.13557290664,158.71707153320312,-231.25457763671875,-211.81161499023438,-347.30078125,146.29551696777344,274.7257995605469,135.3827362060547,-492.052001953125
313198.13957290666,157.77633666992188,-232.30023193359375,-212.80332946777344,-348.23101806640625,145.331787109375,273.8869934082031,134.2946014404297,-493.05023193359375
313198.1435729067,159.0438232421875,-231.0042724609375,-211.3619842529297,-346.67828369140625,146.89553833007812,275.62408447265625,135.4961395263672,-491.8481750488281
313198.14757290663,160.3402862548828,-229.45201110839844,-209.9521026611328,-345.2474060058594,148.39932250976562,276.9949951171875,136.88352966308594,-490.5197448730469
313198.15157290665,160.13543701171875,-229.6123809814453,-210.20640563964844,-345.42926025390625,148.26693725585938,276.8116455078125,136.6846923828125,-490.6811218261719
313198.15557290666,158.5487060546875,-231.12916564941406,-211.79762268066406,-347.074462890625,146.7166748046875,275.1304931640625,135.08297729492188,-492.09698486328125
313198.1595729067,157.21328735351562,-232.51356506347656,-213.1090850830078,-348.5357971191406,145.35226440429688,273.69512939453125,133.75753784179688,-493.36395263671875
313198.16357290663,158.41232299804688,-231.26356506347656,-211.8880615234375,-347.3077697753906,146.39593505859375,274.8252258300781,134.91162109375,-492.2688293457031
313198.16757290665,160.31829833984375,-229.4560089111328,-210.01255798339844,-345.3468322753906,148.13253784179688,276.69073486328125,136.83956909179688,-490.4847717285156
313198.17157290666,160.13844299316406,-229.8332061767578,-210.2483673095703,-345.5656433105469,147.86325073242188,276.4783935546875,136.7686309814453,-490.5697021484375
313198.1755729066,158.85096740722656,-231.1746368408203,-211.70669555664062,-347.1144104003906,146.37844848632812,274.9156494140625,135.48715209960938,-491.8531799316406
313198.17957290664,157.55551147460938,-232.5540313720703,-213.14505004882812,-348.56524658203125,145.02003479003906,273.6181945800781,134.0318145751953,-493.4139404296875
313198.18357290665,158.86245727539062,-231.23309326171875,-211.70220947265625,-347.01300048828125,146.42190551757812,275.19842529296875,135.26832580566406,-492.19940185546875
313198.18757290667,160.27682495117188,-229.6248779296875,-210.04403686523438,-345.31085205078125,147.85226440429688,276.5203857421875,136.84506225585938,-490.50225830078125
313198.1915729066,159.8017120361328,-229.8491973876953,-210.4097442626953,-345.64208984375,147.5140380859375,276.0757141113281,136.46636962890625,-490.70208740234375
313198.19557290664,158.348876953125,-231.48338317871094,-212.00596618652344,-347.21783447265625,145.90481567382812,274.447021484375,134.9585723876953,-492.14093017578125
313198.19957290665,157.65692138671875,-232.12037658691406,-212.7803497314453,-348.0811462402344,145.09347534179688,273.58221435546875,134.189697265625,-492.8229064941406
313198.20357290667,158.86045837402344,-230.90135192871094,-211.49937438964844,-346.7721862792969,146.19309997558594,274.5399475097656,135.3937225341797,-491.6648254394531
313198.2075729066,160.3427734375,-229.2067108154297,-209.7892303466797,-344.97662353515625,147.7813262939453,276.0697326660156,136.94349670410156,-489.9192199707031
313198.21157290664,159.93011474609375,-229.67982482910156,-210.17442321777344,-345.33233642578125,147.52952575683594,275.8843688964844,136.57627868652344,-490.22998046875
313198.21557290666,158.47776794433594,-231.23208618164062,-211.77365112304688,-346.9730224609375,146.064697265625,274.4320373535156,135.0390167236328,-491.7557678222656
313198.2195729067,157.57249450683594,-232.13487243652344,-212.82081604003906,-348.0626525878906,145.1833953857422,273.44134521484375,133.99734497070312,-492.8738708496094
313198.2235729067,158.73855590820312,-230.78994750976562,-211.4788818359375,-346.8181457519531,146.37045288085938,274.381591796875,135.31979370117188,-491.5379333496094
313198.22757290665,160.45968627929688,-228.9654083251953,-209.71429443359375,-345.04656982421875,148.3258819580078,276.57781982421875,137.15182495117188,-489.8912353515625
313198.23157290666,160.072998046875,-229.72979736328125,-210.29432678222656,-345.6216125488281,147.9846649169922,276.48590087890625,136.776123046875,-490.5527038574219
313198.2355729067,158.59217834472656,-231.20111083984375,-211.84759521484375,-347.160888671875,146.39442443847656,274.9026794433594,135.31329345703125,-491.965087890625
313198.2395729067,157.5280303955078,-232.4611053466797,-212.95071411132812,-348.25201416015625,145.0070343017578,273.5667419433594,134.1757049560547,-492.9772644042969
313198.24357290665,158.80001831054688,-231.1981201171875,-211.624267578125,-346.8970947265625,146.03271484375,274.69683837890625,135.440185546875,-491.706298828125
313198.24757290666,160.2273712158203,-229.77674865722656,-210.2288818359375,-345.4927062988281,147.31919860839844,275.9917907714844,136.97247314453125,-490.28643798828125
313198.2515729067,159.81619262695312,-230.24537658691406,-210.7100067138672,-345.9553527832031,146.86805725097656,275.6150817871094,136.625244140625,-490.6346435546875
313198.2555729067,158.71957397460938,-231.40394592285156,-211.84658813476562,-347.1089172363281,145.8313751220703,274.5849304199219,135.44618225097656,-491.81121826171875
313198.25957290665,157.66891479492188,-232.59300231933594,-212.9367218017578,-348.24102783203125,144.79771423339844,273.5267639160156,134.25164794921875,-492.956298828125
313198.26357290667,158.9973602294922,-231.18612670898438,-211.57130432128906,-346.8006591796875,146.08468627929688,274.9366455078125,135.4961395263672,-491.73126220703125
313198.2675729067,160.50514221191406,-229.4934844970703,-210.02854919433594,-345.2798767089844,147.5764923095703,276.34100341796875,137.06089782714844,-490.1965026855469
313198.2715729067,159.9151153564453,-230.06253051757812,-210.61257934570312,-345.90087890625,147.31320190429688,276.0887145996094,136.52532958984375,-490.7650451660156
313198.27557290666,158.23446655273438,-231.67723083496094,-212.33969116210938,-347.60552978515625,145.76742553710938,274.52996826171875,134.8201904296875,-492.4562072753906
313198.2795729067,157.2767333984375,-232.6564483642578,-213.32241821289062,-348.5907287597656,144.77322387695312,273.4453430175781,133.72755432128906,-493.52984619140625
313198.2835729067,158.57418823242188,-231.33351135253906,-211.9365234375,-347.139404296875,146.11614990234375,274.7423095703125,134.8711395263672,-492.26483154296875
313198.2875729067,160.12644958496094,-229.31861877441406,-210.09898376464844,-345.2474060058594,147.875244140625,276.45941162109375,136.53082275390625,-490.2914123535156
313198.29157290666,160.03253173828125,-229.62586975097656,-210.3657684326172,-345.40728759765625,147.52603149414062,276.04974365234375,136.41140747070312,-490.520751953125
313198.2955729067,158.16751098632812,-231.5433349609375,-212.26126098632812,-347.3427429199219,145.6605224609375,274.1737365722656,134.58087158203125,-492.3108215332031
313198.2995729067,156.88504028320312,-232.94921875,-213.57321166992188,-348.7076416015625,144.34307861328125,272.90875244140625,133.19998168945312,-493.6692199707031
313198.3035729067,158.3029022216797,-231.38446044921875,-212.0839080810547,-347.19586181640625,145.78042602539062,274.4190673828125,134.55389404296875,-492.2818298339844
313198.30757290666,159.91012573242188,-229.81222534179688,-210.44970703125,-345.5546569824219,147.39613342285156,276.0792236328125,136.2985076904297,-490.74755859375
313198.3115729067,159.5364227294922,-230.20640563964844,-210.85638427734375,-346.01031494140625,147.12783813476562,275.8374328613281,136.06968688964844,-491.1302490234375
313198.3155729067,158.06309509277344,-231.72669982910156,-212.41712951660156,-347.5795593261719,145.47166442871094,274.2052307128906,134.57937622070312,-492.4981689453125
313198.3195729067,156.7401580810547,-232.99867248535156,-213.65164184570312,-348.78009033203125,143.99435424804688,272.6264953613281,133.12803649902344,-493.5688171386719
313198.3235729067,158.14154052734375,-231.13616943359375,-211.968994140625,-347.0844421386719,145.58607482910156,274.1602478027344,134.5688934326172,-491.8936462402344
313198.3275729067,159.62535095214844,-229.77674865722656,-210.4367218017578,-345.5052185058594,146.9999542236328,275.5761413574219,136.14712524414062,-490.4118347167969
313198.3315729067,159.340576171875,-230.22889709472656,-210.88485717773438,-346.0087890625,146.49485778808594,274.8896789550781,135.98025512695312,-490.7735290527344
313198.3355729067,158.08358764648438,-231.5883026123047,-212.3332061767578,-347.5545654296875,145.15591430664062,273.497802734375,134.66830444335938,-492.1734313964844
313198.3395729067,157.16232299804688,-232.6444549560547,-213.2479705810547,-348.2834777832031,144.33457946777344,273.1480712890625,133.564697265625,-493.2570495605469
313198.3435729067,158.62765502929688,-231.052734375,-211.6152801513672,-346.6158142089844,145.82089233398438,274.6663513183594,135.0215301513672,-491.6913146972656
313198.3475729067,160.56210327148438,-229.23268127441406,-209.76126098632812,-344.7752990722656,147.80380249023438,276.5683288574219,136.927001953125,-489.9052429199219
313198.3515729067,160.02853393554688,-229.73678588867188,-210.3113250732422,-345.4062805175781,147.25674438476562,275.85589599609375,136.5228271484375,-490.3363952636719
313198.35557290673,158.47976684570312,-231.44691467285156,-212.0174560546875,-347.1753845214844,145.59657287597656,274.21221923828125,134.99754333496094,-492.0370178222656
313198.3595729067,157.4281005859375,-232.70989990234375,-213.37486267089844,-348.6631774902344,144.75624084472656,273.5377502441406,133.8000030517578,-493.6831970214844
313198.3635729067,158.90443420410156,-231.10218811035156,-211.93751525878906,-347.32525634765625,146.3159942626953,274.99560546875,135.25083923339844,-492.3442687988281
313198.3675729067,160.8094024658203,-229.5149688720703,-210.1554412841797,-345.436767578125,147.961181640625,276.7107238769531,137.18978881835938,-490.66961669921875
313198.37157290673,160.4631805419922,-229.86817932128906,-210.5611114501953,-345.8888854980469,147.66041564941406,276.4259338378906,136.9324951171875,-491.0053405761719
313198.37557290675,158.8090057373047,-231.61428833007812,-212.3871612548828,-347.7464294433594,146.02871704101562,274.8062438964844,135.25384521484375,-492.7344665527344
313198.3795729067,157.65492248535156,-232.9027557373047,-213.607177734375,-348.9539489746094,144.69578552246094,273.5018005371094,133.9563751220703,-493.9215087890625
313198.3835729067,159.14523315429688,-231.0926971435547,-211.8880615234375,-347.16937255859375,146.2320556640625,275.0455627441406,135.47216796875,-492.23138427734375
313198.38757290674,160.8683624267578,-229.22219848632812,-210.00357055664062,-345.2658996582031,147.98915100097656,276.8006591796875,137.3816375732422,-490.2734375
313198.39157290675,160.30081176757812,-229.7992401123047,-210.57859802246094,-345.8689270019531,147.56500244140625,276.3909912109375,136.89602661132812,-490.7675476074219
313198.3955729067,158.63014221191406,-231.6217803955078,-212.35218811035156,-347.64349365234375,145.9387969970703,274.8467102050781,135.1779022216797,-492.5431213378906
313198.3995729067,157.4905548095703,-232.92074584960938,-213.60018920898438,-348.85504150390625,144.5489044189453,273.497802734375,133.78201293945312,-493.8360900878906
313198.40357290674,159.1122589111328,-231.33799743652344,-211.8845672607422,-347.13140869140625,146.0077362060547,274.93212890625,135.35276794433594,-492.2598571777344
313198.40757290676,160.57809448242188,-229.68182373046875,-210.13645935058594,-345.4012756347656,147.59996032714844,276.396484375,137.00694274902344,-490.4707946777344
313198.4115729067,160.12644958496094,-229.921630859375,-210.525146484375,-345.7994689941406,147.0638885498047,275.7844543457031,136.6337432861328,-490.6496276855469
313198.4155729067,158.5826873779297,-231.6217803955078,-212.25526428222656,-347.5216064453125,145.44769287109375,274.20721435546875,134.9176025390625,-492.310302734375
313198.41957290674,157.5894775390625,-232.65745544433594,-213.2644500732422,-348.5457763671875,144.6013641357422,273.43682861328125,133.7785186767578,-493.44940185546875
313198.42357290676,159.01084899902344,-231.193115234375,-211.6547393798828,-346.93707275390625,145.97776794433594,274.6778564453125,135.25633239746094,-491.9151306152344
313198.4275729067,160.59457397460938,-229.45001220703125,-209.9326171875,-345.2169494628906,147.4151153564453,275.8913879394531,136.991943359375,-490.0526123046875
313198.43157290673,160.33677673339844,-229.5459442138672,-210.21389770507812,-345.47174072265625,147.0918731689453,275.52716064453125,136.76412963867188,-490.22198486328125
313198.43557290675,158.7820281982422,-231.2555694580078,-211.89505004882812,-347.1404113769531,145.50314331054688,274.0893249511719,135.13343811035156,-491.814697265625
313198.43957290676,157.75784301757812,-232.5595245361328,-213.09359741210938,-348.3129577636719,144.37005615234375,273.1545715332031,133.92340087890625,-493.05072021484375
313198.4435729067,159.0408172607422,-231.1316680908203,-211.62026977539062,-346.7956848144531,145.7774200439453,274.54144287109375,135.33128356933594,-491.706298828125
313198.44757290673,160.64453125,-229.30113220214844,-209.78424072265625,-344.9566345214844,147.5485076904297,276.20562744140625,137.09136962890625,-489.8947448730469
313198.45157290675,160.20538330078125,-229.78775024414062,-210.2373809814453,-345.4247741699219,147.27023315429688,275.9488220214844,136.71966552734375,-490.26495361328125
313198.4555729067,158.349365234375,-231.6742401123047,-212.2187957763672,-347.4426574707031,145.40621948242188,274.0793151855469,134.81918334960938,-492.04852294921875
313198.4595729067,157.3556671142578,-232.7248992919922,-213.40684509277344,-348.6391906738281,144.0532989501953,272.7613830566406,133.56419372558594,-493.193603515625
313198.46357290674,159.01983642578125,-230.96630859375,-211.60227966308594,-346.78619384765625,145.8253936767578,274.5479431152344,135.23036193847656,-491.56939697265625
313198.46757290675,160.80690002441406,-229.1652374267578,-209.7332763671875,-344.9231872558594,147.85975646972656,276.5713195800781,137.15931701660156,-489.8897399902344
313198.47157290677,160.37875366210938,-229.78575134277344,-210.395751953125,-345.6615905761719,147.40162658691406,276.08221435546875,136.754638671875,-490.5197448730469
313198.4755729067,158.5626983642578,-231.8470916748047,-212.52655029296875,-347.8683166503906,145.4591827392578,274.2297058105469,134.81869506835938,-492.6720275878906
313198.47957290674,157.3286895751953,-233.197021484375,-213.82301330566406,-349.1857604980469,144.14273071289062,272.9447326660156,133.4497833251953,-493.96099853515625
313198.48357290676,158.758544921875,-231.6097869873047,-212.1553497314453,-347.4091796875,145.57708740234375,274.36810302734375,134.90762329101562,-492.353271484375
313198.4875729068,160.78292846679688,-229.01136779785156,-209.89065551757812,-345.1634826660156,147.84226989746094,276.5088806152344,137.02392578125,-490.0801086425781
313198.4915729067,160.25685119628906,-229.56341552734375,-210.482177734375,-345.7829895019531,147.29721069335938,275.8748779296875,136.55679321289062,-490.5122375488281
313198.49557290674,158.52223205566406,-231.73568725585938,-212.55052185058594,-347.79486083984375,145.33328247070312,273.95941162109375,134.6228485107422,-492.52813720703125
313198.49957290676,157.28172302246094,-233.27294921875,-213.9573974609375,-349.2012634277344,144.0877685546875,272.7533874511719,133.2124786376953,-494.0604248046875
313198.5035729068,159.08828735351562,-231.2230987548828,-211.93701171875,-347.225341796875,146.1371307373047,274.7417907714844,135.10345458984375,-492.17791748046875
313198.50757290673,160.8793487548828,-229.21470642089844,-209.95310974121094,-345.2394104003906,148.04861450195312,276.5658264160156,137.01443481445312,-490.2454528808594
313198.51157290675,160.50314331054688,-229.55642700195312,-210.34230041503906,-345.6590881347656,147.68389892578125,276.1511535644531,136.7186737060547,-490.5057678222656
313198.51557290676,158.67611694335938,-231.55332946777344,-212.3386993408203,-347.7159423828125,145.81988525390625,274.25018310546875,134.8007049560547,-492.4491882324219
313198.5195729068,157.52902221679688,-233.1140899658203,-213.78004455566406,-349.0853576660156,144.22866821289062,272.83880615234375,133.3513641357422,-493.9110412597656
313198.52357290674,159.1862030029297,-231.2755584716797,-211.8740692138672,-346.9985046386719,146.01123046875,274.88018798828125,135.00254821777344,-492.1429443359375
313198.52757290675,160.8998260498047,-229.40704345703125,-209.98507690429688,-345.0905456542969,147.78482055664062,276.5853271484375,136.90951538085938,-490.2284851074219
313198.53157290677,160.41372680664062,-229.899658203125,-210.52264404296875,-345.62060546875,147.30419921875,276.12017822265625,136.45237731933594,-490.6596374511719
313198.5355729068,158.58917236328125,-231.7231903076172,-212.40464782714844,-347.5111083984375,145.35076904296875,274.14727783203125,134.52442932128906,-492.4297180175781
313198.53957290674,157.32469177246094,-233.2919464111328,-213.7655487060547,-348.83905029296875,143.8969268798828,272.85980224609375,133.08807373046875,-493.8775634765625
313198.54357290675,159.03482055664062,-231.13616943359375,-211.83010864257812,-346.9095764160156,145.84437561035156,274.7447814941406,134.8341827392578,-492.0690002441406
313198.54757290677,161.1041717529297,-228.79403686523438,-209.50596618652344,-344.6064147949219,148.14553833007812,276.9310302734375,137.03091430664062,-489.75286865234375
313198.5515729067,160.5221405029297,-229.5369415283203,-210.2104034423828,-345.350830078125,147.36166381835938,276.03875732421875,136.4873504638672,-490.2354736328125
313198.55557290674,158.65013122558594,-231.7766571044922,-212.35269165039062,-347.5580749511719,145.2278594970703,273.8500061035156,134.5703887939453,-492.2958068847656
313198.55957290676,157.56748962402344,-232.7898406982422,-213.50526428222656,-348.7920837402344,144.2041778564453,272.8822937011719,133.32489013671875,-493.5258483886719
313198.5635729068,158.9384002685547,-231.09019470214844,-211.90504455566406,-347.2268371582031,145.9228057861328,274.6283874511719,134.73326110839844,-492.06201171875
313198.56757290673,160.6680145263672,-229.23268127441406,-210.0530242919922,-345.4092712402344,147.91571044921875,276.5818176269531,136.61375427246094,-490.2939147949219
313198.57157290675,160.42820739746094,-229.6918182373047,-210.4841766357422,-345.8589172363281,147.61146545410156,276.39495849609375,136.42990112304688,-490.7860412597656
313198.5755729067,158.70358276367188,-231.6582489013672,-212.42962646484375,-347.83734130859375,145.75144958496094,274.554931640625,134.6243438720703,-492.6820068359375
313198.5795729067,157.6294403076172,-233.0711212158203,-213.7720489501953,-349.17926025390625,144.26412963867188,272.9936828613281,133.28941345214844,-494.03094482421875
313198.58357290673,159.27713012695312,-231.30203247070312,-211.94500732421875,-347.3102722167969,145.91281127929688,274.6573486328125,135.02401733398438,-492.3143005371094
313198.58757290675,161.08367919921875,-229.31512451171875,-209.95809936523438,-345.3258361816406,148.0765838623047,276.8181457519531,137.03741455078125,-490.4438171386719
313198.5915729067,160.43121337890625,-230.0470428466797,-210.65853881835938,-345.975341796875,147.48255920410156,276.25457763671875,136.3954315185547,-491.0653076171875
313198.5955729067,158.83697509765625,-231.6257781982422,-212.4086456298828,-347.7049560546875,145.8138885498047,274.7467956542969,134.66680908203125,-492.6480407714844
313198.59957290674,157.91671752929688,-233.03465270996094,-213.61866760253906,-348.9329528808594,144.39202880859375,273.347900390625,133.5561981201172,-493.9000244140625
313198.60357290675,159.34207153320312,-231.4644012451172,-212.01145935058594,-347.355224609375,145.92880249023438,274.8656921386719,135.09246826171875,-492.4591979980469
313198.6075729067,161.16761779785156,-229.51995849609375,-209.9990692138672,-345.3283386230469,148.0336151123047,277.0154724121094,137.11834716796875,-490.5816955566406
313198.6115729067,160.92431640625,-229.80673217773438,-210.30381774902344,-345.6620788574219,147.77133178710938,276.7142028808594,136.884033203125,-490.74755859375
313198.61557290674,159.0418243408203,-231.59829711914062,-212.26576232910156,-347.6504821777344,145.96478271484375,274.85369873046875,134.8656463623047,-492.5506286621094
313198.61957290675,157.75634765625,-232.79833984375,-213.52474975585938,-348.9354553222656,144.60186767578125,273.44183349609375,133.45777893066406,-493.776123046875
313198.62357290677,159.20819091796875,-231.2490692138672,-211.7891387939453,-347.1219177246094,146.05819702148438,274.8681945800781,134.9680633544922,-492.2328796386719
313198.6275729067,161.00674438476562,-229.13426208496094,-209.65834045410156,-344.9851379394531,148.06410217285156,276.8021545410156,136.94798278808594,-490.14154052734375
313198.63157290674,160.762939453125,-229.43502807617188,-209.99107360839844,-345.27239990234375,147.73985290527344,276.5748291015625,136.69769287109375,-490.3868408203125
313198.63557290676,158.90492248535156,-231.41444396972656,-212.00596618652344,-347.30926513671875,145.70648193359375,274.46502685546875,134.69029235839844,-492.2403564453125
313198.6395729068,157.60446166992188,-232.8393096923828,-213.38485717773438,-348.6431884765625,144.32008361816406,273.1031188964844,133.15701293945312,-493.6182556152344
313198.64357290673,159.5054473876953,-230.6685333251953,-211.3045196533203,-346.546875,146.30349731445312,275.1324768066406,135.16940307617188,-491.6703186035156
313198.64757290675,161.1181640625,-228.96340942382812,-209.5584259033203,-344.8567199707031,147.93869018554688,276.6762390136719,137.0594024658203,-489.97467041015625
313198.65157290676,160.6570281982422,-229.43702697753906,-210.11447143554688,-345.49322509765625,147.53851318359375,276.2720642089844,136.65921020507812,-490.3603820800781
313198.6555729068,158.73855590820312,-231.40545654296875,-212.2113037109375,-347.75140380859375,145.70547485351562,274.3456115722656,134.61285400390625,-492.3332824707031
313198.65957290673,157.37315368652344,-233.111083984375,-213.8514862060547,-349.5174865722656,144.2056884765625,272.9332275390625,133.1070556640625,-494.0828857421875
313198.66357290675,159.2576446533203,-231.3150177001953,-211.97149658203125,-347.61651611328125,146.02772521972656,274.8332214355469,135.12644958496094,-492.42572021484375
313198.66757290676,161.3479766845703,-228.62567138671875,-209.59539794921875,-345.26739501953125,148.5342254638672,277.3217468261719,137.44358825683594,-490.0381164550781
313198.6715729068,160.76194763183594,-229.47799682617188,-210.35379028320312,-346.0287780761719,147.83128356933594,276.56683349609375,136.8860321044922,-490.7295837402344
313198.67557290674,158.98036193847656,-231.6207733154297,-212.47508239746094,-348.1211242675781,145.77493286132812,274.5904235839844,134.8611602783203,-492.7644348144531
313198.67957290675,157.77932739257812,-232.9247283935547,-213.7830352783203,-349.3691101074219,144.39352416992188,273.2814636230469,133.4602813720703,-494.0978698730469
313198.68357290677,159.17271423339844,-231.3205108642578,-212.10488891601562,-347.60003662109375,145.8548583984375,274.6768493652344,135.02252197265625,-492.52313232421875
313198.6875729068,160.95278930664062,-229.4665069580078,-210.08749389648438,-345.5541687011719,147.88424682617188,276.7916564941406,137.07337951660156,-490.57818603515625
313198.69157290674,160.64804077148438,-229.90264892578125,-210.57461547851562,-346.0127868652344,147.4570770263672,276.4254455566406,136.76263427734375,-491.0368347167969
313198.69557290676,158.96087646484375,-231.8016357421875,-212.5530242919922,-348.0456848144531,145.51663208007812,274.5389709472656,134.93508911132812,-492.9577941894531
313198.6995729068,157.7583465576172,-233.32891845703125,-214.00486755371094,-349.489013671875,144.20867919921875,273.30743408203125,133.40982055664062,-494.5125427246094
313198.7035729068,159.4664764404297,-231.50286865234375,-212.07640075683594,-347.4906311035156,146.07968139648438,275.1304931640625,135.2063751220703,-492.805419921875
313198.70757290674,161.35696411132812,-229.39955139160156,-209.88766479492188,-345.2654113769531,148.1680145263672,277.1199035644531,137.30320739746094,-490.59619140625
313198.71157290676,160.8578643798828,-229.60838317871094,-210.2533721923828,-345.72802734375,147.939697265625,276.7856750488281,136.8515625,-490.81201171875
313198.7155729068,159.16722106933594,-231.3455047607422,-212.15135192871094,-347.6764831542969,146.07618713378906,274.9056701660156,134.944091796875,-492.6220703125
313198.7195729068,157.6649169921875,-233.13406372070312,-213.8599853515625,-349.4410705566406,144.384033203125,273.24200439453125,133.26742553710938,-494.3846435546875
313198.72357290675,159.39703369140625,-230.97079467773438,-211.86508178710938,-347.5605773925781,146.45388793945312,275.2044372558594,135.1509246826172,-492.5001525878906
313198.72757290676,161.20008850097656,-229.01686096191406,-209.89915466308594,-345.54718017578125,148.39483642578125,277.2198181152344,137.13084411621094,-490.59368896484375
313198.7315729068,160.76693725585938,-229.57191467285156,-210.43472290039062,-346.0687561035156,147.95068359375,276.9235534667969,136.71817016601562,-491.10076904296875
313198.7355729068,158.7965087890625,-231.76116943359375,-212.5994873046875,-348.35491943359375,145.81788635253906,274.7717590332031,134.68280029296875,-493.1436462402344
313198.73957290675,157.54002380371094,-233.0606231689453,-213.93142700195312,-349.7383117675781,144.3011016845703,273.21600341796875,133.31838989257812,-494.3666687011719
313198.74357290677,159.1971893310547,-231.2380828857422,-212.02745056152344,-347.7808837890625,145.92230224609375,274.7987365722656,135.08897399902344,-492.53314208984375
313198.7475729068,160.9462890625,-229.20970153808594,-210.07200622558594,-345.88690185546875,147.89923095703125,276.64776611328125,137.08937072753906,-490.6406555175781
313198.75157290674,160.52313232421875,-229.78575134277344,-210.68751525878906,-346.5093994140625,147.541015625,276.3360290527344,136.69468688964844,-491.2016906738281
313198.75557290675,158.81748962402344,-232.1608428955078,-212.84629821777344,-348.5063171386719,145.31529235839844,274.2761535644531,134.7147674560547,-493.2515563964844
313198.75957290677,157.75534057617188,-233.3713836669922,-214.10678100585938,-349.69635009765625,143.98934936523438,273.024658203125,133.4268035888672,-494.4740905761719
313198.7635729068,159.2196807861328,-231.73118591308594,-212.38865661621094,-347.91876220703125,145.46966552734375,274.3945617675781,135.0140380859375,-492.87335205078125
313198.76757290674,161.0681915283203,-229.63287353515625,-210.29183959960938,-345.75799560546875,147.5819854736328,276.6397705078125,137.06089782714844,-490.7895202636719
313198.77157290676,160.58358764648438,-229.97958374023438,-210.79443359375,-346.3215637207031,147.28871154785156,276.4114685058594,136.64572143554688,-491.1622314453125
313198.7755729067,158.68060302734375,-232.2078094482422,-212.99867248535156,-348.4848327636719,145.14892578125,274.28564453125,134.5943603515625,-493.32550048828125
313198.77957290673,157.5859832763672,-233.63417053222656,-214.3041229248047,-349.71282958984375,143.76654052734375,272.9612121582031,133.26742553710938,-494.6903991699219
313198.78357290674,159.2721405029297,-231.87557983398438,-212.45359802246094,-347.7703857421875,145.40771484375,274.5709228515625,135.03152465820312,-492.9937744140625
313198.78757290676,161.0881805419922,-229.7512664794922,-210.31881713867188,-345.6186218261719,147.5784912109375,276.7152099609375,137.07188415527344,-490.88494873046875
313198.7915729067,160.36575317382812,-230.41424560546875,-210.98228454589844,-346.3680114746094,147.23526000976562,276.35650634765625,136.3959197998047,-491.50146484375
313198.79557290673,158.45278930664062,-232.4356231689453,-213.1670379638672,-348.627197265625,145.32029724121094,274.4305419921875,134.319091796875,-493.6497497558594
313198.79957290675,157.43409729003906,-233.49227905273438,-214.2806396484375,-349.7912902832031,144.19769287109375,273.304931640625,133.11854553222656,-494.82080078125
313198.80357290676,159.1967010498047,-231.80262756347656,-212.42613220214844,-347.7848815917969,145.89283752441406,275.13897705078125,134.81019592285156,-493.16064453125
313198.8075729067,161.06419372558594,-229.67933654785156,-210.34329223632812,-345.6840515136719,147.95468139648438,277.1199035644531,136.8890380859375,-491.0668029785156
313198.81157290674,160.64404296875,-229.81321716308594,-210.6920166015625,-346.12371826171875,147.66741943359375,276.6702575683594,136.53981018066406,-491.1907043457031
313198.81557290675,158.78851318359375,-231.63526916503906,-212.67942810058594,-348.1840515136719,145.72096252441406,274.61041259765625,134.52691650390625,-492.9847717285156
313198.81957290677,157.06639099121094,-233.53125,-214.4495086669922,-349.95965576171875,143.9289093017578,272.90826416015625,132.70387268066406,-494.8043212890625
313198.8235729067,158.73106384277344,-231.88755798339844,-212.7104034423828,-348.1081237792969,145.5206298828125,274.61090087890625,134.4235076904297,-493.2735290527344
313198.82757290674,160.97677612304688,-229.3700714111328,-210.28384399414062,-345.7120361328125,147.75933837890625,276.70672607421875,136.8140869140625,-490.8030090332031
313198.83157290675,160.64353942871094,-229.71380615234375,-210.6380615234375,-346.0742492675781,147.2627410888672,276.1011962890625,136.5478057861328,-490.92041015625
313198.83557290677,158.70309448242188,-231.86907958984375,-212.7533721923828,-348.1670837402344,145.30430603027344,274.20623779296875,134.4934539794922,-492.98028564453125
313198.8395729067,157.2047882080078,-233.48379516601562,-214.2556610107422,-349.6513977050781,144.0637969970703,273.0846252441406,132.8237762451172,-494.6449279785156
313198.84357290674,159.0418243408203,-231.52784729003906,-212.3332061767578,-347.7179260253906,145.78741455078125,274.6818542480469,134.6927947998047,-492.85736083984375
313198.84757290676,161.39892578125,-229.10279846191406,-209.9356231689453,-345.28338623046875,148.0960693359375,277.0849304199219,137.15382385253906,-490.5232238769531
313198.8515729067,161.0951690673828,-229.58090209960938,-210.33529663085938,-345.6321105957031,147.77133178710938,276.82763671875,136.92201232910156,-490.8399963378906
313198.85557290673,159.04531860351562,-231.7906494140625,-212.5275421142578,-347.850830078125,145.7594451904297,274.855712890625,134.80120849609375,-492.8858642578125
313198.85957290675,157.48306274414062,-233.46031188964844,-214.09829711914062,-349.42156982421875,144.03282165527344,273.110595703125,133.15301513671875,-494.45758056640625
313198.86357290676,159.34007263183594,-231.2935333251953,-212.08489990234375,-347.3677062988281,145.655517578125,274.7847595214844,135.09646606445312,-492.47418212890625
313198.8675729067,161.333984375,-229.0323486328125,-209.89964294433594,-345.1844482421875,147.79580688476562,276.89508056640625,137.25674438476562,-490.3204040527344
313198.87157290673,160.9482879638672,-229.5819091796875,-210.35728454589844,-345.7135314941406,147.5160369873047,276.5683288574219,136.87704467773438,-490.67962646484375
313198.8755729067,159.03782653808594,-231.77215576171875,-212.5435333251953,-347.98773193359375,145.6145477294922,274.705810546875,134.8491668701172,-492.8528747558594
313198.8795729067,157.48406982421875,-233.30392456054688,-214.1112823486328,-349.6064147949219,144.04730224609375,273.08660888671875,133.26792907714844,-494.4066467285156
313198.8835729067,159.3240966796875,-231.52085876464844,-212.23727416992188,-347.5635681152344,145.6465301513672,274.7327880859375,135.02902221679688,-492.67352294921875
313198.88757290674,161.37644958496094,-229.2771453857422,-210.01405334472656,-345.3193664550781,147.76983642578125,276.8431091308594,137.1942901611328,-490.5062561035156
313198.8915729067,160.71348571777344,-229.83970642089844,-210.61607360839844,-345.9473571777344,147.33367919921875,276.4259338378906,136.5802764892578,-491.0018615722656
313198.8955729067,158.6970977783203,-231.80113220214844,-212.64845275878906,-348.0137023925781,145.56210327148438,274.5719299316406,134.45448303222656,-492.92681884765625
313198.8995729067,157.40362548828125,-233.18502807617188,-214.0398406982422,-349.3756103515625,144.14773559570312,273.0731201171875,132.97467041015625,-494.35968017578125
313198.90357290674,159.3490753173828,-231.18362426757812,-212.0409393310547,-347.26678466796875,145.97726440429688,274.9971008300781,134.88462829589844,-492.4706726074219
313198.9075729067,161.33848571777344,-229.28713989257812,-210.00357055664062,-345.2304382324219,147.97866821289062,276.92803955078125,137.0583953857422,-490.4632873535156
313198.9115729067,160.7984161376953,-229.86268615722656,-210.5631103515625,-345.8614196777344,147.5250244140625,276.5898132324219,136.62124633789062,-491.00885009765625
313198.9155729067,159.03082275390625,-231.62826538085938,-212.46609497070312,-347.82635498046875,145.79940795898438,274.98760986328125,134.7537384033203,-492.8823547363281
313198.91957290674,157.70838928222656,-233.18902587890625,-214.0033721923828,-349.4115905761719,144.2091827392578,273.3788757324219,133.32687377929688,-494.3481750488281
313198.92357290676,159.60386657714844,-231.30853271484375,-212.07839965820312,-347.5006103515625,145.87783813476562,275.01556396484375,135.3287811279297,-492.56011962890625
313198.9275729067,161.57379150390625,-229.2731475830078,-209.986572265625,-345.3733215332031,147.89723205566406,277.1029052734375,137.40162658691406,-490.5762023925781
313198.93157290673,161.1956024169922,-229.70680236816406,-210.46620178222656,-345.87841796875,147.46957397460938,276.559326171875,136.9409942626953,-490.91741943359375
313198.93557290675,158.91891479492188,-232.01995849609375,-212.76686096191406,-348.2055358886719,145.07398986816406,274.0573425292969,134.6403350830078,-492.999267578125
313198.93957290676,157.39413452148438,-233.585205078125,-214.29013061523438,-349.6448974609375,143.59317016601562,272.6854248046875,132.9701690673828,-494.52105712890625
313198.9435729067,159.6263427734375,-231.26556396484375,-211.96849060058594,-347.161376953125,145.9822540283203,275.1589660644531,135.181396484375,-492.4331970214844
313198.94757290673,161.9245147705078,-228.6626434326172,-209.57040405273438,-344.7752990722656,148.3348846435547,277.4241638183594,137.63343811035156,-490.01715087890625
313198.95157290675,161.21807861328125,-229.404052734375,-210.31431579589844,-345.59063720703125,147.69338989257812,276.7157287597656,137.0114288330078,-490.68609619140625
313198.95557290677,159.07579040527344,-231.6692352294922,-212.49057006835938,-347.77740478515625,145.5511016845703,274.5044860839844,134.86614990234375,-492.7579650878906
313198.9595729067,157.48306274414062,-233.47030639648438,-214.1317596435547,-349.3970947265625,143.67161560058594,272.6080017089844,133.14552307128906,-494.3731689453125
313198.96357290674,159.3115997314453,-231.24557495117188,-212.1543426513672,-347.3427429199219,145.51463317871094,274.4985046386719,134.95008850097656,-492.4911804199219
313198.96757290675,161.60977172851562,-228.79054260253906,-209.72679138183594,-344.86273193359375,147.99964904785156,277.1009216308594,137.37913513183594,-490.068603515625
313198.97157290677,161.15512084960938,-229.36209106445312,-210.2073974609375,-345.415771484375,147.62994384765625,276.6767578125,137.01593017578125,-490.5172424316406
313198.9755729067,159.1002655029297,-231.46490478515625,-212.34869384765625,-347.6944580078125,145.57908630371094,274.47100830078125,134.95758056640625,-492.5301208496094
313198.97957290674,157.626953125,-233.2154998779297,-214.0033721923828,-349.26470947265625,143.84197998046875,272.79486083984375,133.28091430664062,-494.22027587890625
313198.98357290676,159.8017120361328,-231.1986083984375,-211.9400177001953,-346.94305419921875,145.6315460205078,274.8087463378906,135.2223663330078,-492.2273864746094
313198.9875729068,162.0309295654297,-228.90145874023438,-209.6433563232422,-344.5924377441406,147.86325073242188,277.03497314453125,137.52052307128906,-489.9212341308594
313198.9915729067,161.18910217285156,-229.65185546875,-210.39825439453125,-345.4417724609375,147.21726989746094,276.2960510253906,136.7886199951172,-490.5911865234375
313198.99557290674,159.0688018798828,-231.71519470214844,-212.56301879882812,-347.7199401855469,145.34927368164062,274.3101501464844,134.6393280029297,-492.6560363769531
313198.99957290676,157.51153564453125,-233.2564697265625,-214.11427307128906,-349.2791748046875,143.98934936523438,273.0081787109375,133.02162170410156,-494.22528076171875
313199.0035729067,159.62435913085938,-230.85888671875,-211.9580078125,-347.0929260253906,146.06069946289062,275.157958984375,135.15692138671875,-492.136962890625
313199.00757290673,161.90452575683594,-228.8255157470703,-209.7617645263672,-344.8462219238281,148.17950439453125,277.2972412109375,137.5554962158203,-489.9681701660156
313199.01157290675,161.22007751464844,-229.3630828857422,-210.45620727539062,-345.7075500488281,147.59397888183594,276.58831787109375,136.9519805908203,-490.5701904296875
313199.01557290676,158.8504638671875,-231.7781524658203,-212.83929443359375,-348.23602294921875,145.31678771972656,274.2242126464844,134.6368408203125,-492.8663635253906
313199.0195729067,157.5460205078125,-233.33740234375,-214.28713989257812,-349.6573791503906,143.83297729492188,272.85479736328125,133.1750030517578,-494.43310546875
313199.02357290674,159.5808868408203,-231.31301879882812,-212.25076293945312,-347.49810791015625,145.6260528564453,274.683837890625,135.1439208984375,-492.51715087890625
313199.0275729067,161.79360961914062,-228.994873046875,-209.9326171875,-345.1100158691406,147.8912353515625,276.978515625,137.4390869140625,-490.17901611328125
313199.0315729067,161.4279022216797,-229.38755798339844,-210.33929443359375,-345.4732360839844,147.80081176757812,276.9909973144531,137.1048583984375,-490.59967041015625
313199.0355729067,159.00933837890625,-231.96949768066406,-212.85678100585938,-348.0436706542969,145.39923095703125,274.575927734375,134.68679809570312,-493.0686950683594
313199.03957290674,157.37115478515625,-233.58920288085938,-214.52545166015625,-349.74432373046875,143.4982452392578,272.61798095703125,132.94268798828125,-494.7498474121094
313199.0435729067,159.3425750732422,-231.61778259277344,-212.51905822753906,-347.6300048828125,145.2858123779297,274.446533203125,134.80369567871094,-492.8478698730469
313199.0475729067,161.474365234375,-229.17723083496094,-210.20040893554688,-345.2868957519531,147.702392578125,276.82061767578125,137.0384063720703,-490.4772644042969
313199.0515729067,161.0557098388672,-229.87567138671875,-210.75796508789062,-345.8499450683594,147.1748046875,276.2730712890625,136.6876983642578,-490.9613952636719
313199.05557290674,158.94290161132812,-232.32821655273438,-213.0411376953125,-348.1995544433594,144.92510986328125,274.0793151855469,134.5673828125,-493.1816101074219
313199.0595729067,157.48106384277344,-233.33140563964844,-214.4530029296875,-349.7078552246094,143.49574279785156,272.5615234375,133.01812744140625,-494.58697509765625
313199.0635729067,159.40953063964844,-231.2630615234375,-212.35218811035156,-347.47412109375,145.40872192382812,274.55743408203125,134.90811157226562,-492.5586242675781
313199.06757290673,161.667724609375,-228.90943908691406,-209.94061279296875,-344.93115234375,147.60096740722656,276.69921875,137.1498260498047,-490.0156555175781
313199.07157290675,161.11166381835938,-229.36708068847656,-210.39175415039062,-345.4167785644531,147.10386657714844,276.08221435546875,136.65771484375,-490.2824401855469
313199.0755729067,158.78253173828125,-232.01596069335938,-213.04013061523438,-348.217529296875,144.79620361328125,273.86749267578125,134.28961181640625,-493.0177307128906
313199.0795729067,157.33717346191406,-233.78004455566406,-214.77374267578125,-350.0130920410156,143.4083251953125,272.6164855957031,132.70687866210938,-494.99066162109375
313199.08357290673,159.67930603027344,-231.3994598388672,-212.37815856933594,-347.4701232910156,145.73446655273438,275.03704833984375,135.0380096435547,-492.7804260253906
313199.08757290675,161.991455078125,-228.98687744140625,-209.9735870361328,-344.9461669921875,148.0336151123047,277.4306335449219,137.44908142089844,-490.34637451171875
313199.0915729067,161.41043090820312,-229.59739685058594,-210.6060791015625,-345.5946350097656,147.45957946777344,276.8006591796875,136.88253784179688,-490.8759460449219
313199.0955729067,159.07728576660156,-232.0064697265625,-213.00416564941406,-348.0511779785156,145.1199493408203,274.3980712890625,134.49044799804688,-493.15863037109375
313199.09957290674,157.47207641601562,-233.6656494140625,-214.60438537597656,-349.69384765625,143.57118225097656,272.8553161621094,132.86074829101562,-494.82080078125
313199.10357290675,159.5524139404297,-231.645263671875,-212.46510314941406,-347.56304931640625,145.5441131591797,274.8502197265625,135.01502990722656,-492.8638610839844
313199.1075729067,161.77462768554688,-229.3740692138672,-210.21240234375,-345.4107971191406,147.7003936767578,276.8565979003906,137.35765075683594,-490.6021728515625
313199.1115729067,161.2890167236328,-229.4924774169922,-210.6360626220703,-345.9913330078125,147.51654052734375,276.57733154296875,136.93499755859375,-490.88995361328125
313199.11557290674,159.017333984375,-231.95950317382812,-212.9731903076172,-348.3199462890625,145.38424682617188,274.5704345703125,134.57638549804688,-493.2375793457031
313199.11957290675,157.35816955566406,-233.90194702148438,-214.7417755126953,-350.0610656738281,143.46827697753906,272.62847900390625,132.80279541015625,-495.0096435546875
313199.1235729067,159.40553283691406,-231.53135681152344,-212.58949279785156,-347.79638671875,145.29481506347656,274.4400329589844,134.85565185546875,-492.86785888671875
313199.1275729067,161.87704467773438,-228.9269256591797,-210.0150604248047,-345.2159423828125,147.8932342529297,277.0424499511719,137.42510986328125,-490.3543701171875
313199.13157290674,161.45489501953125,-229.511962890625,-210.47369384765625,-345.7135314941406,147.7513427734375,276.91107177734375,137.06988525390625,-490.9049377441406
313199.1355729067,159.42550659179688,-231.7391815185547,-212.6834259033203,-348.04168701171875,145.827392578125,275.05804443359375,135.0015411376953,-493.19659423828125
313199.1395729067,157.82778930664062,-233.4718017578125,-214.42652893066406,-349.9356689453125,144.11825561523438,273.3274230957031,133.3243865966797,-495.0970764160156
313199.14357290673,159.47447204589844,-231.7191925048828,-212.67092895507812,-348.1580810546875,145.64353942871094,274.73480224609375,135.0110321044922,-493.3809509277344
313199.14757290675,162.01043701171875,-228.88197326660156,-210.0904998779297,-345.5281982421875,148.2544403076172,277.31072998046875,137.47506713867188,-490.7110900878906
313199.1515729067,161.60726928710938,-229.4395294189453,-210.5771026611328,-345.9503479003906,147.9881591796875,277.1783447265625,137.07537841796875,-491.2101745605469
313199.1555729067,159.21617126464844,-232.1928253173828,-213.1810302734375,-348.5417785644531,145.48765563964844,274.7008361816406,134.59886169433594,-493.80810546875
313199.15957290673,157.7653350830078,-233.55523681640625,-214.7257843017578,-350.1120300292969,144.01034545898438,273.2125244140625,133.02162170410156,-495.3149108886719
313199.16357290675,159.64483642578125,-231.57931518554688,-212.77883911132812,-348.0172119140625,145.76544189453125,275.0355529785156,134.8721466064453,-493.4374084472656
313199.1675729067,161.82908630371094,-229.23867797851562,-210.48068237304688,-345.6380920410156,148.0780792236328,277.3487243652344,137.13233947753906,-491.1372375488281
313199.1715729067,161.38644409179688,-229.79324340820312,-210.98228454589844,-346.1686706542969,147.70887756347656,276.94952392578125,136.7351531982422,-491.6103820800781
313199.1755729067,159.34457397460938,-232.0099639892578,-213.12156677246094,-348.38189697265625,145.6035614013672,274.7632751464844,134.68528747558594,-493.6422424316406
313199.1795729067,157.6968994140625,-233.81602478027344,-214.87916564941406,-350.1624755859375,143.81549072265625,273.02716064453125,132.92820739746094,-495.4178161621094
313199.1835729067,159.6443328857422,-231.81512451171875,-212.9227294921875,-348.10162353515625,145.6929931640625,275.0645446777344,134.8076934814453,-493.6372375488281
313199.1875729067,162.00344848632812,-229.30313110351562,-210.50216674804688,-345.7705078125,148.05960083007812,277.4306335449219,137.30569458007812,-491.1617431640625
313199.1915729067,161.28602600097656,-230.0200653076172,-211.2041015625,-346.5948486328125,147.3921356201172,276.6702575683594,136.73265075683594,-491.69781494140625
313199.1955729067,159.58187866210938,-231.9654998779297,-213.1400604248047,-348.5247802734375,145.51612854003906,274.8222351074219,134.86814880371094,-493.58978271484375
313199.1995729067,158.14553833007812,-233.64865112304688,-214.6283721923828,-350.0655517578125,144.04481506347656,273.4593200683594,133.39881896972656,-495.11407470703125
313199.2035729067,159.9600830078125,-231.66024780273438,-212.66343688964844,-348.01019287109375,145.708984375,275.158447265625,135.3018035888672,-493.2635498046875
313199.2075729067,162.28672790527344,-228.98239135742188,-210.15245056152344,-345.53668212890625,148.1085662841797,277.431640625,137.75534057617188,-490.71807861328125
313199.2115729067,161.75265502929688,-229.58241271972656,-210.71849060058594,-346.23162841796875,147.72486877441406,276.9240417480469,137.30670166015625,-491.2546691894531
313199.2155729067,159.426513671875,-232.06842041015625,-213.15155029296875,-348.64569091796875,145.4366912841797,274.6693420410156,134.90562438964844,-493.6837158203125
313199.21957290673,157.81979370117188,-233.66014099121094,-214.7417755126953,-350.1390075683594,143.8824462890625,273.2220153808594,133.13153076171875,-495.3183898925781
313199.2235729067,159.90863037109375,-231.65174865722656,-212.70640563964844,-347.9637451171875,145.69998168945312,275.0665283203125,135.16091918945312,-493.4723815917969
313199.2275729067,162.32618713378906,-229.1917266845703,-210.288330078125,-345.5566711425781,148.11105346679688,277.474609375,137.6943817138672,-491.12774658203125
313199.2315729067,161.53282165527344,-230.0255584716797,-211.05972290039062,-346.4349670410156,147.5355224609375,276.85760498046875,137.05740356445312,-491.814697265625
313199.23557290673,159.3006134033203,-232.38865661621094,-213.31591796875,-348.7571105957031,145.30929565429688,274.5289611816406,134.84866333007812,-493.9145202636719
313199.2395729067,157.71038818359375,-233.8779754638672,-214.9615936279297,-350.3902893066406,143.4947509765625,272.625,133.1090545654297,-495.456298828125
313199.2435729067,159.59986877441406,-231.88656616210938,-212.9367218017578,-348.2445068359375,145.32078552246094,274.5494384765625,135.0380096435547,-493.4613952636719
313199.2475729067,161.87554931640625,-229.339599609375,-210.47618103027344,-345.77099609375,147.58348083496094,276.7167053222656,137.49105834960938,-490.9678955078125
313199.2515729067,161.32049560546875,-229.75677490234375,-210.96929931640625,-346.3520202636719,147.271728515625,276.43994140625,137.0079345703125,-491.340087890625
313199.2555729067,159.55889892578125,-231.75967407226562,-212.97268676757812,-348.3419494628906,145.58108520507812,274.9271545410156,135.03701782226562,-493.34649658203125
313199.2595729067,158.0201416015625,-233.48129272460938,-214.5843963623047,-349.98211669921875,143.86944580078125,273.0761413574219,133.38583374023438,-495.0146484375
313199.2635729067,159.73675537109375,-231.494384765625,-212.6394500732422,-347.9637451171875,145.51263427734375,274.61639404296875,135.13543701171875,-493.0766906738281
313199.2675729067,162.0309295654297,-228.9963836669922,-210.1834259033203,-345.3822937011719,148.0311279296875,277.4191589355469,137.42959594726562,-490.6681213378906
313199.2715729067,161.6302490234375,-229.4545135498047,-210.66554260253906,-345.8504333496094,147.7813262939453,277.2158203125,137.0274200439453,-491.1072692871094
313199.27557290666,159.61285400390625,-231.796630859375,-212.95370483398438,-348.2475280761719,145.6175537109375,274.9546203613281,134.97605895996094,-493.3085021972656
313199.2795729067,158.0236358642578,-233.58670043945312,-214.63136291503906,-349.9131774902344,143.90142822265625,273.3708801269531,133.31289672851562,-494.9986572265625
313199.2835729067,160.00804138183594,-231.55332946777344,-212.57351684570312,-347.7374267578125,145.69598388671875,275.2214050292969,135.2858123779297,-493.0282287597656
313199.2875729067,162.33319091796875,-229.16673278808594,-210.23037719726562,-345.4572448730469,147.96267700195312,277.36968994140625,137.6898956298828,-490.6551208496094
313199.29157290666,161.76364135742188,-229.73928833007812,-210.80592346191406,-346.1391906738281,147.5465087890625,276.91156005859375,137.1892852783203,-491.1632385253906
313199.2955729067,159.68130493164062,-231.97898864746094,-213.02215576171875,-348.3824157714844,145.5291290283203,274.8936767578125,135.052001953125,-493.4134216308594
313199.2995729067,158.3418731689453,-233.38336181640625,-214.4420166015625,-349.8712158203125,144.04580688476562,273.34442138671875,133.63613891601562,-494.8657531738281
313199.3035729067,160.17041015625,-231.3455047607422,-212.48507690429688,-347.89129638671875,145.87234497070312,275.2333984375,135.4796600341797,-493.0816955566406
313199.30757290666,162.62445068359375,-228.9644012451172,-209.964599609375,-345.2049560546875,148.2559356689453,277.7259216308594,137.90672302246094,-490.6736145019531
313199.3115729067,162.08688354492188,-229.53744506835938,-210.5071563720703,-345.7505187988281,147.7003936767578,277.0719299316406,137.4300994873047,-491.0977783203125
313199.3155729067,159.85916137695312,-231.753173828125,-212.78533935546875,-348.07965087890625,145.51063537597656,274.878173828125,135.1953887939453,-493.215087890625
313199.3195729067,158.05810546875,-233.50277709960938,-214.54542541503906,-349.8752136230469,143.8309783935547,273.1895446777344,133.34536743164062,-494.9756774902344
313199.3235729067,159.83718872070312,-231.67523193359375,-212.7093963623047,-347.9572448730469,145.5241241455078,274.8572082519531,135.20787048339844,-493.2835388183594
313199.3275729067,162.22677612304688,-229.3266143798828,-210.341796875,-345.5946350097656,147.76483154296875,277.08642578125,137.702880859375,-490.9778747558594
313199.3315729067,161.6227569580078,-229.77725219726562,-210.9153289794922,-346.28558349609375,147.45858764648438,276.7257080078125,137.17030334472656,-491.4599914550781
313199.3355729067,159.5074462890625,-232.00796508789062,-213.0825958251953,-348.47332763671875,145.59007263183594,274.9006652832031,134.9515838623047,-493.6312561035156
313199.3395729067,157.86575317382812,-233.66514587402344,-214.80422973632812,-350.1639709472656,143.9224090576172,273.2869567871094,133.12704467773438,-495.4093322753906
313199.3435729067,159.7482452392578,-231.67872619628906,-212.8008270263672,-348.05517578125,145.5875701904297,274.9256591796875,135.08847045898438,-493.4159240722656
313199.3475729067,162.22177124023438,-229.10128784179688,-210.17242431640625,-345.4092712402344,148.3083953857422,277.64947509765625,137.68190002441406,-490.8085021972656
313199.3515729067,161.7701416015625,-229.2027130126953,-210.53863525390625,-345.9263610839844,147.98715209960938,277.0989074707031,137.26573181152344,-491.02783203125
313199.35557290673,159.46397399902344,-231.66424560546875,-212.89625549316406,-348.3669128417969,145.76043701171875,274.855712890625,134.94508361816406,-493.3320007324219
313199.3595729067,158.23545837402344,-233.13755798339844,-214.2461700439453,-349.725830078125,144.38304138183594,273.57623291015625,133.58267211914062,-494.75384521484375
313199.3635729067,160.3712615966797,-231.0472412109375,-212.14385986328125,-347.5225830078125,146.2855224609375,275.5960998535156,135.69198608398438,-492.71197509765625
313199.3675729067,162.43560791015625,-228.9534149169922,-210.02154541015625,-345.3453369140625,148.2984161376953,277.6404724121094,137.86524963378906,-490.6231689453125
313199.3715729067,162.01693725585938,-229.4490203857422,-210.50515747070312,-345.91436767578125,147.83078002929688,277.07794189453125,137.48805236816406,-491.02783203125
313199.3755729067,159.60037231445312,-231.93553161621094,-212.92922973632812,-348.3634338378906,145.47467041015625,274.7762756347656,135.05349731445312,-493.33099365234375
313199.3795729067,157.98316955566406,-233.62417602539062,-214.59439086914062,-349.9456481933594,143.74404907226562,273.06512451171875,133.28890991210938,-494.9696960449219
313199.3835729067,160.07398986816406,-231.23558044433594,-212.41712951660156,-347.6579895019531,145.70448303222656,275.0980224609375,135.3557586669922,-492.85137939453125
313199.3875729067,162.4081268310547,-228.93443298339844,-210.051025390625,-345.2059326171875,148.07208251953125,277.56304931640625,137.76583862304688,-490.55621337890625
313199.3915729067,161.646728515625,-229.85218811035156,-210.8558807373047,-346.0887451171875,147.32518005371094,276.66973876953125,137.10935974121094,-491.24066162109375
313199.3955729067,159.4769744873047,-232.2187957763672,-213.1305694580078,-348.3749084472656,145.1304473876953,274.57342529296875,134.9171142578125,-493.4369201660156
313199.3995729067,158.08958435058594,-233.73208618164062,-214.67083740234375,-349.8717041015625,143.6331329345703,273.1955261230469,133.36634826660156,-495.0635986328125
313199.4035729067,160.11346435546875,-231.56431579589844,-212.5670166015625,-347.7359313964844,145.47467041015625,274.9146423339844,135.4741668701172,-493.0587158203125
313199.4075729067,162.31619262695312,-229.29263305664062,-210.2933349609375,-345.5381774902344,147.7488555908203,277.075439453125,137.82928466796875,-490.87744140625
313199.4115729067,161.64024353027344,-229.99607849121094,-211.07020568847656,-346.3800048828125,147.15931701660156,276.50537109375,137.14083862304688,-491.65484619140625
313199.4155729067,159.84417724609375,-231.96749877929688,-213.0431365966797,-348.3724060058594,145.4901580810547,274.888671875,135.13394165039062,-493.54632568359375
313199.4195729067,158.2464599609375,-233.64915466308594,-214.68382263183594,-349.9751281738281,143.84097290039062,273.3199462890625,133.38783264160156,-495.2024841308594
313199.4235729067,160.09347534179688,-231.591796875,-212.6604461669922,-347.829833984375,145.61505126953125,275.07403564453125,135.26683044433594,-493.32550048828125
313199.4275729067,162.41162109375,-229.2227020263672,-210.2858428955078,-345.4542541503906,148.02462768554688,277.4845886230469,137.6943817138672,-491.01483154296875
313199.43157290673,161.7361602783203,-229.7792510986328,-210.8828582763672,-346.15069580078125,147.57398986816406,276.9340515136719,137.120849609375,-491.4365234375
313199.4355729067,159.82069396972656,-231.7461700439453,-212.93421936035156,-348.23651123046875,145.5820770263672,274.8711853027344,135.13143920898438,-493.40594482421875
313199.4395729067,158.348876953125,-233.4742889404297,-214.555419921875,-349.8922119140625,143.97486877441406,273.2220153808594,133.5402069091797,-495.1170654296875
313199.4435729067,160.21987915039062,-231.29803466796875,-212.46559143066406,-347.7698974609375,145.98025512695312,275.23541259765625,135.52561950683594,-493.10516357421875
313199.4475729067,162.28622436523438,-229.19271850585938,-210.29383850097656,-345.5831298828125,148.08956909179688,277.38616943359375,137.72137451171875,-490.96240234375
313199.4515729067,161.9070281982422,-229.60189819335938,-210.6685333251953,-346.0577697753906,147.76283264160156,277.06744384765625,137.4176025390625,-491.23516845703125
313199.4555729067,159.7517547607422,-231.6852264404297,-212.89076232910156,-348.40838623046875,145.63253784179688,274.8147277832031,135.28981018066406,-493.30450439453125
313199.4595729067,158.305908203125,-233.30592346191406,-214.49647521972656,-349.99462890625,144.2241668701172,273.37139892578125,133.67510986328125,-494.9556884765625
313199.4635729067,160.1844024658203,-231.21360778808594,-212.52903747558594,-347.8977966308594,145.9947509765625,275.2344055175781,135.55210876464844,-492.9987487792969
313199.4675729067,162.51353454589844,-228.8255157470703,-210.16293334960938,-345.3148498535156,148.1355438232422,277.60101318359375,137.8827362060547,-490.542724609375
313199.47157290665,162.1583251953125,-229.34410095214844,-210.5611114501953,-345.6685791015625,147.72036743164062,277.2113342285156,137.5789794921875,-490.82049560546875
313199.47557290667,159.78273010253906,-231.81411743164062,-212.93421936035156,-348.11962890625,145.47366333007812,275.0005798339844,135.17739868164062,-493.0931701660156
313199.4795729067,158.219482421875,-233.42333984375,-214.52244567871094,-349.6753845214844,143.77403259277344,273.2434997558594,133.4967498779297,-494.6844177246094
313199.4835729067,159.85316467285156,-231.548828125,-212.69590759277344,-347.786376953125,145.2318572998047,274.61590576171875,135.16041564941406,-492.9602966308594
313199.48757290666,162.43560791015625,-228.72808837890625,-209.93312072753906,-345.0021057128906,147.97816467285156,277.40667724609375,137.7838134765625,-490.20098876953125
313199.49157290667,161.9984588623047,-229.2836456298828,-210.36376953125,-345.4707336425781,147.52603149414062,276.97900390625,137.37164306640625,-490.5677185058594
313199.4955729067,159.5973663330078,-231.8126220703125,-212.79783630371094,-348.023681640625,145.01502990722656,274.3011474609375,134.9910430908203,-492.8543701171875
313199.4995729067,158.15902709960938,-233.25196838378906,-214.29164123535156,-349.53997802734375,143.46327209472656,272.6889343261719,133.44528198242188,-494.335205078125
313199.50357290666,160.10646057128906,-231.27105712890625,-212.30322265625,-347.3817138671875,145.3807373046875,274.7772521972656,135.30630493164062,-492.5646057128906
313199.5075729067,162.3126983642578,-228.6516571044922,-209.90264892578125,-345.0775451660156,147.99815368652344,277.28826904296875,137.63243103027344,-490.2749328613281
313199.5115729067,161.99295043945312,-229.08680725097656,-210.3777618408203,-345.6690673828125,147.64942932128906,276.79815673828125,137.3076934814453,-490.7185974121094
313199.5155729067,159.57589721679688,-231.67373657226562,-212.93922424316406,-348.30096435546875,145.29730224609375,274.5254821777344,134.83367919921875,-493.26654052734375
313199.51957290666,157.61395263671875,-233.57421875,-214.88516235351562,-350.3498229980469,143.4033203125,272.5295715332031,132.80430603027344,-495.2184753417969
313199.5235729067,159.70079040527344,-231.10519409179688,-212.62496948242188,-347.914794921875,145.6015625,274.7148132324219,134.88113403320312,-492.9223327636719
313199.5275729067,162.00494384765625,-228.7735595703125,-210.20091247558594,-345.3148498535156,147.86875915527344,276.9964904785156,137.25074768066406,-490.5107421875
313199.5315729067,161.5248260498047,-229.51596069335938,-210.8289031982422,-345.9638366699219,147.3112030029297,276.450927734375,136.765625,-491.0992736816406
313199.53557290667,159.2781219482422,-231.66323852539062,-213.20401000976562,-348.5173034667969,145.1898956298828,274.2681884765625,134.49295043945312,-493.387451171875
313199.5395729067,157.7313690185547,-233.3553924560547,-214.81771850585938,-350.0395812988281,143.60116577148438,272.8208312988281,132.8157958984375,-494.97467041015625
313199.5435729067,159.6658172607422,-231.22659301757812,-212.7053985595703,-347.76788330078125,145.64852905273438,275.0555419921875,134.72576904296875,-492.9193115234375
313199.54757290665,161.98497009277344,-229.02285766601562,-210.39076232910156,-345.4522399902344,147.88723754882812,277.25579833984375,137.15782165527344,-490.6611328125
313199.55157290667,161.62974548339844,-229.4150390625,-210.86936950683594,-346.062255859375,147.4765625,276.8006591796875,136.8425750732422,-491.0827941894531
313199.5555729067,159.2996063232422,-231.79913330078125,-213.28494262695312,-348.6311950683594,145.17840576171875,274.4565124511719,134.491943359375,-493.430908203125
313199.5595729067,157.5804901123047,-233.5452423095703,-214.9970703125,-350.3782958984375,143.41432189941406,272.73291015625,132.67539978027344,-495.111572265625
313199.56357290666,159.56790161132812,-231.7027130126953,-213.0766143798828,-348.2650146484375,145.09896850585938,274.52496337890625,134.50144958496094,-493.3179931640625
313199.5675729067,161.84507751464844,-229.30262756347656,-210.6850128173828,-345.8959045410156,147.41860961914062,276.7901611328125,136.927001953125,-490.8969421386719
313199.5715729067,161.40243530273438,-229.78823852539062,-211.16213989257812,-346.407470703125,147.01193237304688,276.4404296875,136.55380249023438,-491.2361755371094
313199.57557290664,159.1737060546875,-232.06092834472656,-213.36288452148438,-348.6231994628906,144.78921508789062,274.3031311035156,134.31008911132812,-493.29351806640625
313199.57957290666,157.31869506835938,-233.94992065429688,-215.19390869140625,-350.45574951171875,142.8572540283203,272.28277587890625,132.42510986328125,-495.0536193847656
313199.5835729067,159.26063537597656,-231.93153381347656,-213.1865234375,-348.2974853515625,144.56689453125,274.0493469238281,134.4085235595703,-493.1406555175781
313199.5875729067,161.8026123046875,-229.188720703125,-210.51515197753906,-345.6800537109375,147.23675537109375,276.70123291015625,137.05340576171875,-490.5587158203125
313199.59157290665,161.43240356445312,-229.9161376953125,-210.98028564453125,-346.1656799316406,146.81809997558594,276.256591796875,136.68569946289062,-491.0583190917969
313199.59557290666,159.34707641601562,-231.8575897216797,-213.0271453857422,-348.2535095214844,144.95608520507812,274.42755126953125,134.58187866210938,-493.0172424316406
313199.5995729067,157.92221069335938,-233.32591247558594,-214.61936950683594,-349.8587341308594,143.36935424804688,272.8183288574219,133.00064086914062,-494.6659240722656
313199.6035729067,159.81619262695312,-231.36048889160156,-212.67942810058594,-347.84234619140625,145.34226989746094,274.9361267089844,134.89013671875,-492.9438171386719
313199.60757290665,161.80960083007812,-229.188720703125,-210.5071563720703,-345.6780700683594,147.58248901367188,277.1358947753906,137.0109405517578,-490.8434753417969
313199.61157290667,161.69369506835938,-229.43902587890625,-210.76345825195312,-346.0552673339844,147.47706604003906,276.935546875,136.87355041503906,-491.081787109375
313199.6155729067,159.6008758544922,-231.7391815185547,-213.01914978027344,-348.4583435058594,145.34976196289062,274.6933288574219,134.76922607421875,-493.2950134277344
313199.61957290664,157.9741668701172,-233.34689331054688,-214.6393585205078,-350.17498779296875,143.7080841064453,273.03515625,133.1180419921875,-494.86376953125
313199.62357290665,159.78372192382812,-231.2410888671875,-212.5800018310547,-348.0466613769531,145.5096435546875,274.87518310546875,135.0140380859375,-492.859375
313199.62757290667,161.93051147460938,-228.86248779296875,-210.24386596679688,-345.674560546875,147.62893676757812,276.8995666503906,137.2847137451172,-490.4447937011719
313199.6315729067,161.20208740234375,-229.5959014892578,-210.999267578125,-346.47991943359375,146.86854553222656,275.9822998046875,136.60276794433594,-491.038330078125
313199.63557290664,159.11526489257812,-231.67323303222656,-213.14454650878906,-348.67816162109375,145.0320281982422,274.1627502441406,134.43299865722656,-493.04522705078125
313199.63957290666,157.6629180908203,-233.07711791992188,-214.6808319091797,-350.1634826660156,143.5841827392578,272.83880615234375,132.82577514648438,-494.5255432128906
313199.6435729067,159.750244140625,-231.21859741210938,-212.63446044921875,-347.893798828125,145.5331268310547,275.0380554199219,134.8341827392578,-492.7394714355469
313199.6475729067,162.1458282470703,-228.61068725585938,-210.15394592285156,-345.4277648925781,148.01113891601562,277.3926696777344,137.29769897460938,-490.2959289550781
313199.65157290665,161.48036193847656,-229.04034423828125,-210.76596069335938,-346.169189453125,147.48605346679688,276.7356872558594,136.72116088867188,-490.7490539550781
313199.65557290666,158.99285888671875,-231.65675354003906,-213.35289001464844,-348.8520202636719,145.0335235595703,274.3046569824219,134.19418334960938,-493.3135070800781
313199.6595729067,157.76983642578125,-233.13555908203125,-214.78424072265625,-350.2633972167969,143.61366271972656,273.02716064453125,132.76683044433594,-494.81280517578125
313199.6635729067,159.7102813720703,-231.35299682617188,-212.895751953125,-348.2760009765625,145.36524963378906,274.8846740722656,134.72377014160156,-493.13665771484375
313199.66757290665,162.1258544921875,-228.92044067382812,-210.44720458984375,-345.86041259765625,147.7103729248047,277.11138916015625,137.27223205566406,-490.70208740234375
313199.67157290666,161.6447296142578,-229.60238647460938,-211.0372314453125,-346.439453125,147.1873016357422,276.558837890625,136.76263427734375,-491.20269775390625
313199.6755729066,159.62985229492188,-231.90704345703125,-213.20950317382812,-348.6247253417969,145.09646606445312,274.5209655761719,134.66281127929688,-493.3115234375
313199.67957290664,158.03262329101562,-233.7216033935547,-214.83470153808594,-350.2264404296875,143.3523712158203,272.8393249511719,133.03012084960938,-494.9546813964844
313199.68357290665,159.8546600341797,-231.6377716064453,-212.8397979736328,-348.19354248046875,145.1199493408203,274.63287353515625,134.98805236816406,-493.0222473144531
313199.68757290667,162.20228576660156,-229.08880615234375,-210.32830810546875,-345.6371154785156,147.637939453125,277.226318359375,137.44358825683594,-490.59716796875
313199.6915729066,161.74266052246094,-229.43553161621094,-210.77694702148438,-346.14019775390625,147.444091796875,276.98651123046875,137.02891540527344,-490.95440673828125
313199.69557290664,159.40953063964844,-231.8126220703125,-213.10308837890625,-348.48431396484375,145.12045288085938,274.62188720703125,134.64833068847656,-493.1496276855469
313199.69957290665,157.79531860351562,-233.7985382080078,-214.86917114257812,-350.19744873046875,143.23095703125,272.7449035644531,132.92221069335938,-494.9971618652344
313199.70357290667,159.7967071533203,-231.4923858642578,-212.7843475341797,-348.0486755371094,145.2103729248047,274.73980712890625,134.89112854003906,-493.00726318359375
313199.7075729066,162.1818084716797,-228.93841552734375,-210.212890625,-345.4852294921875,147.8337860107422,277.43914794921875,137.3706512451172,-490.56719970703125
313199.71157290664,161.75714111328125,-229.56492614746094,-210.82391357421875,-346.18017578125,147.37364196777344,276.8830871582031,136.84857177734375,-491.2156982421875
313199.71557290666,159.6658172607422,-231.6152801513672,-213.0591278076172,-348.5173034667969,145.30929565429688,274.72930908203125,134.65032958984375,-493.365966796875
313199.7195729067,157.91522216796875,-233.52125549316406,-214.93711853027344,-350.4227600097656,143.40731811523438,272.91973876953125,132.80679321289062,-495.26043701171875
313199.7235729067,159.60887145996094,-231.66824340820312,-213.1630401611328,-348.5547790527344,145.06300354003906,274.6199035644531,134.52142333984375,-493.5957946777344
313199.72757290665,161.9624786376953,-229.08880615234375,-210.63705444335938,-346.0093078613281,147.56500244140625,277.0319519042969,136.97146606445312,-491.0183410644531
313199.73157290666,161.4344024658203,-229.7992401123047,-211.19261169433594,-346.5093994140625,147.0309295654297,276.5173645019531,136.43040466308594,-491.4864807128906
313199.7355729067,159.0443115234375,-231.82162475585938,-213.47279357910156,-348.8540344238281,144.84217834472656,274.1952209472656,134.02333068847656,-493.5613098144531
313199.7395729067,157.4470977783203,-233.2744598388672,-215.03903198242188,-350.4642333984375,143.3039093017578,272.6409606933594,132.3671417236328,-495.00616455078125
313199.74357290665,159.3370819091797,-231.6812286376953,-213.2999267578125,-348.5842590332031,144.9206085205078,274.3810729980469,134.21617126464844,-493.48486328125
313199.74757290666,161.77862548828125,-228.91343688964844,-210.75096130371094,-346.00830078125,147.56349182128906,277.0694274902344,136.74864196777344,-490.9783630371094
313199.7515729067,161.29051208496094,-229.35958862304688,-211.2006072998047,-346.4874267578125,147.16481018066406,276.5658264160156,136.31898498535156,-491.28411865234375
313199.7555729067,158.9493865966797,-231.69021606445312,-213.5292510986328,-348.8894958496094,144.8236846923828,274.0748291015625,133.9978485107422,-493.4139404296875
313199.75957290665,157.43809509277344,-233.39935302734375,-215.21640014648438,-350.5052185058594,143.2384490966797,272.55303955078125,132.2917022705078,-495.16851806640625
313199.76357290667,159.77772521972656,-231.3599853515625,-213.05262756347656,-348.065673828125,145.3192901611328,274.90716552734375,134.4355010986328,-493.3025207519531
313199.7675729067,162.07589721679688,-229.0613250732422,-210.66354370117188,-345.6620788574219,147.52003479003906,277.0914306640625,136.86904907226562,-490.9269104003906
313199.7715729067,161.4219207763672,-229.75326538085938,-211.31451416015625,-346.43896484375,146.958984375,276.4469299316406,136.33396911621094,-491.4874572753906
313199.77557290666,158.95738220214844,-232.35768127441406,-213.84698486328125,-348.971435546875,144.56239318847656,274.16375732421875,133.83497619628906,-493.9979553222656
313199.7795729067,157.34417724609375,-234.07481384277344,-215.43922424316406,-350.57464599609375,142.7533416748047,272.29974365234375,132.17080688476562,-495.5846862792969
313199.7835729067,159.54791259765625,-231.8201141357422,-213.09010314941406,-348.2230224609375,144.7232666015625,274.2242126464844,134.47396850585938,-493.23907470703125
313199.7875729067,162.15982055664062,-228.80752563476562,-210.31431579589844,-345.46722412109375,147.66590881347656,277.1663513183594,137.1997833251953,-490.42633056640625
313199.79157290666,161.57528686523438,-229.46949768066406,-210.86187744140625,-346.0078125,147.22427368164062,276.64776611328125,136.68370056152344,-490.8389892578125
313199.7955729067,159.3455810546875,-231.81661987304688,-213.11058044433594,-348.28948974609375,145.01353454589844,274.35009765625,134.39352416992188,-492.98126220703125
313199.7995729067,157.7478485107422,-233.2314910888672,-214.70680236816406,-349.8931884765625,143.46078491210938,272.84130859375,132.66790771484375,-494.59197998046875
313199.80357290665,159.6713104248047,-231.37347412109375,-212.78683471679688,-347.8438415527344,145.2693328857422,274.8471984863281,134.55589294433594,-492.9393005371094
313199.80757290666,161.7576446533203,-229.1057891845703,-210.5391387939453,-345.6506042480469,147.4600830078125,276.904052734375,136.84207153320312,-490.66363525390625
313199.8115729067,161.1326446533203,-229.76376342773438,-211.19161987304688,-346.3979797363281,146.89154052734375,276.2830505371094,136.29251098632812,-491.2491455078125
313199.8155729067,159.15821838378906,-232.00946044921875,-213.39935302734375,-348.6366882324219,144.84317016601562,274.3026428222656,134.12974548339844,-493.48236083984375
313199.81957290665,157.53651428222656,-233.8190155029297,-215.13246154785156,-350.29437255859375,143.11505126953125,272.6644592285156,132.3656463623047,-495.3109130859375
313199.82357290667,159.5269317626953,-231.79763793945312,-213.08059692382812,-348.11761474609375,144.91061401367188,274.46502685546875,134.3695526123047,-493.30999755859375
313199.8275729066,161.79861450195312,-229.45950317382812,-210.761962890625,-345.7440185546875,147.16781616210938,276.68475341796875,136.67970275878906,-490.9364013671875
313199.83157290664,161.3824462890625,-229.6953125,-211.16712951660156,-346.1786804199219,146.8440704345703,276.3420104980469,136.29750061035156,-491.254150390625
313199.83557290665,159.35806274414062,-231.7836456298828,-213.2854461669922,-348.3619079589844,144.82269287109375,274.28717041015625,134.26812744140625,-493.3050231933594
313199.83957290667,157.8083038330078,-233.58270263671875,-214.96609497070312,-350.01458740234375,143.1820068359375,272.70343017578125,132.57598876953125,-495.068603515625
313199.8435729066,159.7787322998047,-231.63926696777344,-212.93971252441406,-347.8523254394531,145.0055389404297,274.60589599609375,134.50294494628906,-493.1876220703125
313199.84757290664,162.07589721679688,-229.2187042236328,-210.62257385253906,-345.5052185058594,147.25474548339844,276.8181457519531,136.80210876464844,-490.9129333496094
313199.85157290666,161.6012725830078,-229.62237548828125,-211.08670043945312,-346.0952453613281,146.86654663085938,276.3370056152344,136.3809356689453,-491.2816467285156
313199.8555729067,159.42601013183594,-231.97848510742188,-213.41134643554688,-348.539794921875,144.6338348388672,274.00238037109375,134.1647186279297,-493.55780029296875
313199.85957290663,158.02662658691406,-233.50926208496094,-214.89614868164062,-350.0755615234375,143.0925750732422,272.47210693359375,132.76333618164062,-495.0960693359375
313199.86357290664,159.8541717529297,-231.44541931152344,-212.84329223632812,-348.0072021484375,144.87364196777344,274.3346252441406,134.75523376464844,-493.09967041015625
313199.86757290666,161.96047973632812,-229.2566680908203,-210.6525421142578,-345.7160339355469,146.96298217773438,276.48541259765625,136.9250030517578,-490.8194885253906
313199.8715729067,161.49185180664062,-229.56341552734375,-210.9647979736328,-346.0352783203125,146.7831268310547,276.4249572753906,136.5872802734375,-490.92840576171875
313199.87557290663,159.21067810058594,-231.70570373535156,-213.10159301757812,-348.35992431640625,144.71327209472656,274.2002258300781,134.39852905273438,-492.84039306640625
313199.87957290665,157.3936309814453,-233.60218811035156,-214.8841552734375,-350.1180114746094,142.8772430419922,272.39166259765625,132.50953674316406,-494.593994140625
313199.88357290666,159.6563262939453,-230.93482971191406,-212.486083984375,-347.5850524902344,145.02102661132812,274.48699951171875,134.7737274169922,-492.20440673828125
313199.8875729067,161.93499755859375,-228.60768127441406,-210.05801391601562,-345.1510009765625,147.4385986328125,276.96600341796875,137.1833038330078,-489.83380126953125
313199.89157290664,161.37245178222656,-229.46949768066406,-210.8019256591797,-345.9858093261719,146.8315887451172,276.3265380859375,136.63873291015625,-490.57720947265625
313199.89557290665,159.2631378173828,-231.63926696777344,-213.11907958984375,-348.42437744140625,144.7197723388672,274.188232421875,134.4020233154297,-492.87786865234375
313199.89957290667,157.54151916503906,-233.4957733154297,-214.94610595703125,-350.307373046875,142.94219970703125,272.5165710449219,132.58348083496094,-494.79632568359375
313199.9035729067,159.5648956298828,-231.5678253173828,-212.93222045898438,-348.216552734375,144.6907958984375,274.3126525878906,134.6393280029297,-492.88385009765625
313199.90757290664,161.74815368652344,-229.2421875,-210.6385498046875,-345.9093933105469,146.8800506591797,276.40997314453125,136.94699096679688,-490.5657043457031
313199.91157290665,161.37295532226562,-229.67433166503906,-211.0602264404297,-346.3915100097656,146.56478881835938,276.01226806640625,136.6327362060547,-490.8284912109375
313199.91557290667,159.11276245117188,-232.08889770507812,-213.47129821777344,-348.8165588378906,144.3590545654297,273.8609924316406,134.3430633544922,-493.2440490722656
313199.9195729067,157.5969696044922,-233.843994140625,-215.18142700195312,-350.5411682128906,142.66641235351562,272.21282958984375,132.73385620117188,-495.0526123046875
313199.9235729067,159.71878051757812,-231.9290313720703,-213.1565399169922,-348.3858947753906,144.40951538085938,273.9714050292969,134.72976684570312,-493.2790222167969
313199.92757290666,162.07339477539062,-229.30612182617188,-210.57411193847656,-345.7115478515625,147.06539916992188,276.7077331542969,137.1298370361328,-490.7080993652344
313199.9315729067,161.2425537109375,-230.00906372070312,-211.35398864746094,-346.449462890625,146.4119110107422,275.95733642578125,136.29051208496094,-491.33709716796875
313199.9355729067,159.16172790527344,-232.18582153320312,-213.47079467773438,-348.4903259277344,144.2811279296875,273.77056884765625,134.10226440429688,-493.3509826660156
313199.9395729067,157.875244140625,-233.69012451171875,-214.78173828125,-349.747802734375,142.7998046875,272.2822570800781,132.66990661621094,-494.70440673828125
313199.94357290666,160.09597778320312,-231.20611572265625,-212.4755859375,-347.40069580078125,144.8096923828125,274.2641906738281,134.922607421875,-492.4916687011719
313199.9475729067,162.32369995117188,-228.74407958984375,-210.06552124023438,-345.049560546875,147.31568908691406,276.7362060546875,137.32069396972656,-490.0785827636719
313199.9515729067,162.06739807128906,-229.0288543701172,-210.33230590820312,-345.41278076171875,147.24024963378906,276.6272888183594,137.1173553466797,-490.34136962890625
313199.9555729067,160.13644409179688,-231.08221435546875,-212.40814208984375,-347.5975341796875,145.20938110351562,274.5594482421875,135.14292907714844,-492.3218078613281
313199.95957290666,158.36785888671875,-233.03814697265625,-214.26466369628906,-349.4635314941406,143.3418731689453,272.63299560546875,133.28392028808594,-494.1373596191406
313199.9635729067,160.33078002929688,-230.8139190673828,-212.1718292236328,-347.2747802734375,145.42820739746094,274.899169921875,135.2658233642578,-492.13995361328125
313199.9675729067,162.6144561767578,-228.2529754638672,-209.67532348632812,-344.72332763671875,148.026123046875,277.6959228515625,137.70188903808594,-489.66741943359375
313199.9715729067,162.228271484375,-228.7715606689453,-210.18641662597656,-345.3168640136719,147.61695861816406,277.1953430175781,137.35964965820312,-490.1000671386719
313199.97557290667,160.0480194091797,-231.26156616210938,-212.5885009765625,-347.7923889160156,145.29481506347656,274.73980712890625,135.0540008544922,-492.46319580078125
313199.9795729067,158.0955810546875,-233.04563903808594,-214.43252563476562,-349.69635009765625,143.35635375976562,272.67144775390625,133.069091796875,-494.2662353515625
313199.9835729067,160.3392791748047,-230.53814697265625,-212.03244018554688,-347.204833984375,145.53411865234375,274.8337097167969,135.37574768066406,-491.8751525878906
313199.9875729067,162.29721069335938,-228.48928833007812,-209.92062377929688,-345.0435791015625,147.70138549804688,277.032958984375,137.41661071777344,-489.8053283691406
313199.99157290667,161.8670654296875,-228.79653930664062,-210.2848358154297,-345.4497375488281,147.31019592285156,276.59429931640625,137.0369110107422,-490.0566101074219
313199.9955729067,159.88864135742188,-230.82891845703125,-212.27474975585938,-347.5075988769531,145.34327697753906,274.58941650390625,135.04251098632812,-491.9316101074219
313199.9995729067,158.38734436035156,-232.39366149902344,-213.84100341796875,-349.0558776855469,143.81399536132812,273.0656433105469,133.3548583984375,-493.559326171875
313200.00357290666,160.16592407226562,-230.6185760498047,-211.99896240234375,-347.07196044921875,145.48416137695312,274.8142395019531,135.14442443847656,-491.94110107421875
313200.0075729067,162.42660522460938,-228.1670379638672,-209.6828155517578,-344.7633056640625,147.69888305664062,276.9964904785156,137.52752685546875,-489.6329650878906
313200.0115729067,162.03591918945312,-228.70510864257812,-210.1714324951172,-345.2848815917969,147.26223754882812,276.5308532714844,137.1912841796875,-489.9866638183594
313200.0155729067,159.9580841064453,-231.03823852539062,-212.43911743164062,-347.5960388183594,145.2098846435547,274.48748779296875,135.05349731445312,-492.2598571777344
313200.01957290666,158.3468780517578,-232.93922424316406,-214.26165771484375,-349.4600524902344,143.4053192138672,272.6274719238281,133.28591918945312,-494.2008056640625
313200.0235729067,160.21287536621094,-230.9538116455078,-212.27725219726562,-347.3457336425781,145.15841674804688,274.4939880371094,135.23135375976562,-492.3567810058594
313200.02757290663,162.72787475585938,-228.22549438476562,-209.55592346191406,-344.54296875,147.7533416748047,277.1958312988281,137.89572143554688,-489.5994873046875
313200.03157290665,162.13084411621094,-229.06631469726562,-210.29583740234375,-345.275390625,147.02442932128906,276.3769836425781,137.19578552246094,-490.23345947265625
313200.03557290667,159.96458435058594,-231.32101440429688,-212.55352783203125,-347.58404541015625,145.10696411132812,274.5524597167969,134.9176025390625,-492.45220947265625
313200.0395729067,158.2449493408203,-232.9901885986328,-214.31910705566406,-349.3985900878906,143.33238220214844,272.7663879394531,133.16500854492188,-494.2292785644531
313200.04357290664,160.05850219726562,-231.15565490722656,-212.43362426757812,-347.4076843261719,145.02252197265625,274.5424499511719,135.01553344726562,-492.47369384765625
313200.04757290665,162.4675750732422,-228.52175903320312,-209.9031524658203,-344.9696350097656,147.61895751953125,277.03497314453125,137.60995483398438,-489.9127197265625
313200.05157290667,162.0199432373047,-229.18272399902344,-210.47218322753906,-345.6106262207031,147.2342529296875,276.6602478027344,137.22425842285156,-490.43829345703125
313200.0555729067,159.80970764160156,-231.5303497314453,-212.7753448486328,-347.9922180175781,145.052001953125,274.5494384765625,135.00103759765625,-492.66802978515625
313200.05957290664,158.19549560546875,-233.23098754882812,-214.5529327392578,-349.8177490234375,143.34886169433594,272.8103332519531,133.26593017578125,-494.5100402832031
313200.06357290666,160.23435974121094,-230.9183349609375,-212.44361877441406,-347.6235046386719,145.331787109375,274.8841857910156,135.31228637695312,-492.4771728515625
313200.0675729067,162.69039916992188,-228.28944396972656,-209.89015197753906,-345.0500793457031,147.8697509765625,277.4371337890625,137.84925842285156,-489.9167175292969
313200.0715729067,161.95799255371094,-229.13526916503906,-210.63006591796875,-345.86041259765625,147.1877899169922,276.7102355957031,137.207275390625,-490.5697021484375
313200.07557290664,159.54791259765625,-231.63626098632812,-213.0861053466797,-348.3858947753906,144.6962890625,274.13128662109375,134.7687225341797,-492.9068298339844
313200.07957290666,158.14154052734375,-233.0701141357422,-214.48898315429688,-349.7308349609375,143.21498107910156,272.7378845214844,133.2919158935547,-494.2777404785156
313200.0835729067,160.1034698486328,-230.97828674316406,-212.40115356445312,-347.420166015625,145.14442443847656,274.77777099609375,135.18789672851562,-492.29083251953125
313200.0875729067,162.46507263183594,-228.5397491455078,-209.92312622070312,-344.85772705078125,147.52403259277344,277.1688537597656,137.63693237304688,-489.87677001953125
313200.09157290665,161.8960418701172,-229.15875244140625,-210.48268127441406,-345.5596618652344,147.18280029296875,276.7257080078125,137.0903778076172,-490.5042419433594
313200.09557290666,159.68479919433594,-231.3455047607422,-212.7753448486328,-347.9647521972656,145.02902221679688,274.49200439453125,134.82717895507812,-492.6914978027344
313200.0995729067,158.0955810546875,-233.11209106445312,-214.49497985839844,-349.70184326171875,143.27842712402344,272.8208312988281,133.10755920410156,-494.3911437988281
313200.10357290664,160.28231811523438,-230.77345275878906,-212.1898193359375,-347.2952880859375,145.3717498779297,274.93115234375,135.310791015625,-492.2093811035156
313200.10757290665,162.67440795898438,-228.29293823242188,-209.71279907226562,-344.8237609863281,147.7098846435547,277.1398620605469,137.7943115234375,-489.7843322753906
313200.11157290667,162.12484741210938,-228.98887634277344,-210.33030700683594,-345.5141906738281,147.1238555908203,276.4609069824219,137.24925231933594,-490.26495361328125
313200.1155729066,159.95358276367188,-231.2665557861328,-212.53353881835938,-347.7334289550781,145.14442443847656,274.51898193359375,135.01502990722656,-492.4122314453125
313200.11957290664,158.3728485107422,-232.6044921875,-214.0792999267578,-349.28369140625,143.6601104736328,273.0311584472656,133.32937622070312,-494.0164489746094
313200.12357290665,160.26084899902344,-230.52215576171875,-212.0144500732422,-347.1603698730469,145.45668029785156,274.8407287597656,135.29380798339844,-492.0170593261719
313200.1275729066,162.25074768066406,-228.412841796875,-209.83419799804688,-344.9486389160156,147.508544921875,276.87408447265625,137.40013122558594,-489.8302917480469
313200.1315729066,161.74615478515625,-228.88397216796875,-210.35379028320312,-345.5381774902344,147.1013641357422,276.41796875,136.90301513671875,-490.2724304199219
313200.13557290664,159.54541015625,-231.1196746826172,-212.6189727783203,-347.894287109375,144.94659423828125,274.177734375,134.65782165527344,-492.4117431640625
313200.13957290666,157.9966583251953,-232.8667755126953,-214.31961059570312,-349.53448486328125,143.26243591308594,272.5865173339844,133.03262329101562,-494.1298522949219
313200.1435729066,160.05999755859375,-230.7564697265625,-212.2097930908203,-347.3427429199219,145.18789672851562,274.6044006347656,135.1439208984375,-492.12994384765625
313200.14757290663,162.58998107910156,-228.28094482421875,-209.7367706298828,-344.8542175292969,147.5699920654297,276.92803955078125,137.67091369628906,-489.70440673828125
313200.15157290665,161.9125213623047,-229.04234313964844,-210.4906768798828,-345.6580810546875,146.88653564453125,276.214111328125,136.9969482421875,-490.3638610839844
313200.15557290666,159.65283203125,-231.44192504882812,-212.85328674316406,-348.1620788574219,144.78372192382812,274.0863342285156,134.72976684570312,-492.7294616699219
313200.1595729066,158.01063537597656,-233.34190368652344,-214.6663360595703,-349.9511413574219,143.00613403320312,272.3766784667969,132.96017456054688,-494.60247802734375
313200.16357290663,159.7737274169922,-231.5193634033203,-212.8203125,-347.90728759765625,144.56639099121094,274.0488586425781,134.7127685546875,-492.85687255859375
313200.16757290665,162.24176025390625,-228.66664123535156,-210.05502319335938,-345.06854248046875,147.4475860595703,276.9735107421875,137.27223205566406,-490.0950927734375
313200.17157290666,161.98995971679688,-228.78305053710938,-210.27734375,-345.3173522949219,147.15432739257812,276.60931396484375,137.0594024658203,-490.13653564453125
313200.1755729066,159.9850616455078,-230.98977661132812,-212.40713500976562,-347.4756164550781,144.99354553222656,274.45501708984375,134.95558166503906,-492.1979064941406
313200.17957290664,158.26744079589844,-232.7303924560547,-214.08729553222656,-349.1667785644531,143.3743438720703,272.8882751464844,133.1465301513672,-493.862060546875
313200.18357290665,159.92510986328125,-230.99977111816406,-212.25625610351562,-347.204833984375,144.91111755371094,274.4800109863281,134.88613891601562,-492.12445068359375
313200.18757290667,162.51454162597656,-228.14505004882812,-209.47698974609375,-344.4225769042969,147.46707153320312,276.92205810546875,137.6219482421875,-489.271728515625
313200.1915729066,162.2842254638672,-228.3404083251953,-209.82420349121094,-344.85772705078125,147.3017120361328,276.6717529296875,137.36415100097656,-489.5140380859375
