lsl_time,CZ,C3,CPZ3,FC4,FC3,CPZ4,C4,CPZ
304996.0757749032,0.3404850959777832,0.7922621369361877,0.9340900778770447,0.4591335952281952,0.03703126683831215,-0.03984237089753151,0.749600887298584,1.7813811302185059
304996.0797749032,0.424576997756958,0.9184111952781677,0.8899595737457275,0.0705290213227272,-0.11742936819791794,0.38843846321105957,1.7876453399658203,3.13666033744812
304996.0837749032,0.4828672707080841,1.0436245203018188,1.0106995105743408,0.056190140545368195,-0.1962597370147705,0.37560996413230896,2.0565757751464844,3.7355546951293945
304996.0877749032,0.2730714678764343,0.4614362418651581,0.13008230924606323,-0.23726889491081238,0.5202985405921936,1.4342900514602661,1.748786449432373,0.4488253891468048
304996.0917749032,0.3948846459388733,0.5523403286933899,-0.006906593684107065,-0.026408014819025993,1.3584154844284058,1.9052281379699707,1.3157587051391602,0.32723042368888855
304996.0957749032,0.4824119210243225,0.5619555115699768,-0.19066905975341797,0.2927219867706299,2.1980419158935547,2.0640385150909424,0.565089225769043,0.38370299339294434
304996.0997749032,0.5478218793869019,0.637763261795044,-0.22279609739780426,0.321870893239975,2.5304298400878906,2.428680181503296,0.5273906588554382,0.24759528040885925
304996.1037749032,0.2950457036495209,0.1505558043718338,-0.1247812882065773,0.8600707650184631,1.2412956953048706,0.020668962970376015,0.37905046343803406,2.0599727630615234
304996.1077749032,0.41029584407806396,0.11428603529930115,0.04625552147626877,1.446151614189148,1.059960961341858,0.04473228007555008,1.6333211660385132,2.196265935897827
304996.1117749032,0.4857553541660309,0.045114703476428986,0.2767220139503479,1.910251498222351,0.6355099081993103,0.1908511072397232,2.9119863510131836,1.6995254755020142
304996.1157749032,0.5515702366828918,0.04787347465753555,0.3203173577785492,2.211184024810791,0.6916761994361877,0.1645941436290741,3.416581392288208,1.9966363906860352
304996.1197749032,0.2638307213783264,-0.07291600853204727,0.5383308529853821,0.8692416548728943,-0.0829777717590332,1.5169117450714111,1.0395158529281616,0.24328860640525818
304996.1237749032,0.3478749990463257,-0.1138472780585289,0.9339235424995422,0.7419444918632507,0.2624628245830536,2.074127197265625,0.5497310161590576,2.026808023452759
304996.1277749032,0.39400526881217957,-0.13692878186702728,1.267151951789856,0.44623371958732605,0.7468599677085876,2.3344316482543945,-0.12580221891403198,3.779452085494995
304996.1317749032,0.44800707697868347,-0.1556064337491989,1.4520541429519653,0.4857167899608612,0.8295556306838989,2.6675589084625244,-0.21325081586837769,4.632380962371826
304996.13577490323,0.20597229897975922,0.01190396212041378,0.8714829087257385,-0.1229485422372818,1.457269310951233,0.010923904366791248,1.6358261108398438,0.7070415616035461
304996.1397749032,0.29654553532600403,0.07681871950626373,1.2397534847259521,-0.1957314908504486,2.253709077835083,-0.22328975796699524,3.0928032398223877,0.03638651594519615
304996.1437749032,0.34209921956062317,0.08903640508651733,1.4290097951889038,-0.24601978063583374,2.615032196044922,-0.2924882471561432,3.5691583156585693,0.049807075411081314
304996.1477749032,0.13478074967861176,0.20225080847740173,0.4381008744239807,0.36941254138946533,0.7862077355384827,0.5865260362625122,0.9289212822914124,0.726076066493988
304996.1517749032,0.1594551056623459,0.41667062044143677,0.338817834854126,1.010505199432373,0.5167803764343262,1.6508262157440186,0.34186822175979614,1.8234879970550537
304996.1557749032,0.1621210277080536,0.6227038502693176,0.14481769502162933,1.6647734642028809,0.1133725643157959,2.650930166244507,-0.38262537121772766,2.7847068309783936
304996.1597749032,0.1832265704870224,0.7121259570121765,0.1532905548810959,1.9143668413162231,0.0715283676981926,3.1227338314056396,-0.570881724357605,3.276533842086792
304996.1637749032,0.05231954902410507,0.5136609673500061,-0.13034799695014954,1.1406688690185547,0.0906018316745758,1.1101429462432861,0.9555533528327942,0.4113243818283081
304996.1677749032,0.044226109981536865,0.7692162394523621,-0.15671996772289276,1.2875374555587769,0.7163210511207581,0.5452779531478882,1.8417812585830688,0.6563417315483093
304996.1717749032,0.024221627041697502,0.9572603106498718,-0.12616465985774994,1.2056100368499756,1.4465667009353638,-0.25717949867248535,2.560131072998047,1.043919324874878
304996.1757749032,0.026652866974473,1.0952106714248657,-0.15881702303886414,1.3767638206481934,1.6519176959991455,-0.3583923578262329,2.9926130771636963,1.0822012424468994
304996.1797749032,-0.014717603102326393,0.5664877891540527,0.21460336446762085,0.031084094196558,1.519299030303955,0.36477962136268616,0.15751102566719055,1.802720308303833
304996.1837749032,-0.03879139944911003,0.7291987538337708,0.5939121246337891,-0.09501207619905472,1.568576455116272,1.446524977684021,0.0965052992105484,1.7183215618133545
304996.1877749032,-0.06258881092071533,0.8037104606628418,0.9884103536605835,-0.22446374595165253,1.322354793548584,2.606358766555786,0.20977544784545898,1.1732994318008423
304996.1917749032,-0.07225367426872253,0.9086742997169495,1.1270501613616943,-0.28112468123435974,1.509861946105957,3.0081071853637695,0.14343546330928802,1.3512077331542969
304996.19577490323,-0.04965640604496002,0.3176923394203186,0.8091477751731873,0.1795887053012848,-0.1118248775601387,1.3353850841522217,2.5580177307128906,0.23785516619682312
304996.1997749032,-0.0684337168931961,0.32861992716789246,1.1765817403793335,0.7681747078895569,-0.06514351814985275,0.9532768726348877,3.9467782974243164,1.665960431098938
304996.2037749032,-0.08078429102897644,0.27882757782936096,1.4356335401535034,1.4061428308486938,0.06991071254014969,0.33347052335739136,4.542059421539307,3.282623291015625
304996.2077749032,-0.09233681112527847,0.3139369487762451,1.64348304271698,1.609261393547058,0.010595569387078285,0.3030345141887665,5.394250869750977,3.7627480030059814
304996.21177490323,-0.03646962344646454,0.004307422786951065,0.5336130857467651,1.2177871465682983,1.0442276000976562,0.2231932282447815,-0.2264145016670227,0.7928200364112854
304996.2157749032,-0.03725305572152138,-0.06414919346570969,0.49525514245033264,1.4451853036880493,1.8203054666519165,1.0715951919555664,0.2172393649816513,0.726360023021698
304996.2197749032,-0.02997541055083275,-0.13902200758457184,0.34147801995277405,1.4303596019744873,2.419567108154297,2.0054595470428467,0.9812062382698059,0.6702559590339661
304996.2237749032,-0.03551165759563446,-0.15767617523670197,0.3848733901977539,1.6235114336013794,2.8031866550445557,2.3321456909179688,1.10588538646698,0.6560825705528259
304996.22777490324,0.009194089099764824,-0.10777653753757477,-0.09264492988586426,0.16653025150299072,0.7248349189758301,1.3596868515014648,1.8939177989959717,2.1619582176208496
304996.2317749032,0.04036930948495865,-0.0840567871928215,-0.15623460710048676,-0.0035354397259652615,0.4036039710044861,1.140662431716919,1.8210595846176147,2.4157395362854004
304996.2357749032,0.07406280189752579,-0.03660061955451965,-0.20411819219589233,-0.18382683396339417,-0.06575644016265869,0.6033115386962891,1.1841987371444702,2.01298451423645
304996.2397749032,0.08463504910469055,-0.03772054240107536,-0.24243612587451935,-0.23984010517597198,-0.12444097548723221,0.6469177007675171,1.3549476861953735,2.347043752670288
304996.24377490324,0.0857885405421257,0.11648491770029068,0.10490547120571136,0.08274827152490616,-0.06048010662198067,-0.2257910817861557,-0.15305717289447784,-0.1946362555027008
304996.2477749032,0.15327580273151398,0.292813777923584,0.4256550073623657,0.570448637008667,0.6044453978538513,0.8064335584640503,0.9885436296463013,1.7329347133636475
304996.2517749032,0.21389248967170715,0.4734905958175659,0.7650187015533447,1.1313871145248413,1.380902647972107,2.051767110824585,2.3982129096984863,3.90185809135437
304996.2557749032,0.2438386082649231,0.5413316488265991,0.8796529173851013,1.2965413331985474,1.596386194229126,2.3405604362487793,2.7506978511810303,4.697338581085205
304996.25977490324,0.1708475947380066,0.45443910360336304,0.8154968023300171,1.2698032855987549,1.3467762470245361,1.657025694847107,1.6764042377471924,1.6183916330337524
304996.2637749032,0.271745890378952,0.7142861485481262,1.1766035556793213,1.5995763540267944,1.4688093662261963,1.380847692489624,1.014022707939148,1.0608372688293457
304996.2677749032,0.35402825474739075,0.9210157990455627,1.412792444229126,1.6914457082748413,1.3043216466903687,0.7302072048187256,-0.05917426943778992,0.27373138070106506
304996.27177490323,0.40342676639556885,1.0471183061599731,1.6265029907226562,1.9336025714874268,1.490613341331482,0.8154285550117493,-0.12461929023265839,0.21895653009414673
304996.27577490325,0.2738904356956482,0.6132924556732178,0.6403775215148926,0.2718746066093445,-0.22534872591495514,0.22670820355415344,0.7987838387489319,1.63027024269104
304996.2797749032,0.42180541157722473,0.913458526134491,0.8261628150939941,0.21700316667556763,-0.43862926959991455,0.6380093097686768,1.8558005094528198,2.714329957962036
304996.2837749032,0.48420941829681396,1.0551178455352783,0.9548346400260925,0.25123265385627747,-0.5295217037200928,0.6927760243415833,2.1527554988861084,3.1885054111480713
304996.28777490323,0.2807281017303467,0.46139127016067505,0.11204579472541809,-0.20007610321044922,0.4623965620994568,1.6104087829589844,1.64764404296875,0.48369988799095154
304996.2917749032,0.40050336718559265,0.5495724081993103,-0.026371430605649948,0.038907893002033234,1.3349891901016235,2.084745168685913,1.1200518608093262,0.3951645791530609
304996.2957749032,0.4857805669307709,0.5590399503707886,-0.20311249792575836,0.36439958214759827,2.2142744064331055,2.173274278640747,0.17198766767978668,0.4664950370788574
304996.2997749032,0.5507957339286804,0.6343303918838501,-0.23309482634067535,0.41244909167289734,2.55063533782959,2.5314018726348877,0.1770036518573761,0.3644081950187683
304996.30377490324,0.29311180114746094,0.15342974662780762,-0.11490226536989212,0.916495144367218,1.1974750757217407,-0.007747592404484749,0.34801924228668213,2.3846564292907715
304996.3077749032,0.40846216678619385,0.10385003685951233,0.06602552533149719,1.5398024320602417,1.0204052925109863,0.1257816106081009,1.567279577255249,2.216110944747925
304996.3117749032,0.482357919216156,0.019464639946818352,0.29098445177078247,2.032005548477173,0.5651006698608398,0.3488375246524811,2.820169448852539,1.3393603563308716
304996.3157749032,0.5487520098686218,0.015428666025400162,0.33266228437423706,2.3440613746643066,0.631405770778656,0.34775790572166443,3.2928881645202637,1.5514007806777954
304996.31977490324,0.2585892379283905,-0.09949182718992233,0.5404958724975586,0.8141798377037048,-0.10990839451551437,1.4080405235290527,0.793803334236145,0.1552228480577469
304996.3237749032,0.3493800461292267,-0.14703813195228577,0.9599881172180176,0.6827548742294312,0.2724851071834564,2.022258996963501,0.23659494519233704,1.3676705360412598
304996.3277749032,0.4017970561981201,-0.17907649278640747,1.3309293985366821,0.3647957444190979,0.776970624923706,2.3621654510498047,-0.43852299451828003,2.7582597732543945
304996.3317749032,0.45698103308677673,-0.20918238162994385,1.520801067352295,0.40108734369277954,0.8765875697135925,2.718600273132324,-0.5825541019439697,3.1971523761749268
304996.33577490324,0.19619931280612946,-0.009282033890485764,0.874925434589386,-0.25246867537498474,1.2934367656707764,0.23140379786491394,2.1155154705047607,0.9851526618003845
304996.3397749032,0.24759803712368011,0.08710835874080658,1.0484979152679443,-0.08270470798015594,1.7567800283432007,0.13177844882011414,4.478779315948486,0.6377671957015991
304996.3437749032,0.26857784390449524,0.2032788246870041,1.081318974494934,0.18311946094036102,1.9452122449874878,0.07006078213453293,6.273914337158203,0.2562158405780792
304996.34777490323,0.30413684248924255,0.23367244005203247,1.2333117723464966,0.21091091632843018,2.221416473388672,0.023423004895448685,7.407276153564453,0.09057483077049255
304996.35177490325,0.11313372850418091,0.29153379797935486,0.25398901104927063,0.6848841905593872,0.26321107149124146,1.3322184085845947,0.3063008189201355,1.8460500240325928
304996.3557749032,0.12787741422653198,0.5350251197814941,0.15591095387935638,1.3624504804611206,-0.018426498398184776,2.102940559387207,0.34613922238349915,2.4892947673797607
304996.3597749032,0.12285013496875763,0.756876528263092,0.0023282107431441545,1.9855653047561646,-0.32256975769996643,2.588252544403076,0.48923227190971375,2.5920956134796143
304996.36377490324,0.13902513682842255,0.8631872534751892,-0.007023117505013943,2.29194712638855,-0.4232720136642456,2.9839632511138916,0.4732850193977356,3.093395709991455
304996.36777490325,0.02728334255516529,0.5612315535545349,-0.18381072580814362,0.99891597032547,0.4518759250640869,0.2036607265472412,1.8703043460845947,-0.873145341873169
304996.3717749032,0.016701720654964447,0.8034058809280396,-0.07708118855953217,0.9186971187591553,1.287237524986267,-0.08110474050045013,2.2436511516571045,0.630416989326477
304996.3757749032,0.001047870609909296,0.9741027355194092,0.09792868047952652,0.6230741739273071,2.141165256500244,-0.2628096342086792,2.087918519973755,2.489412546157837
304996.37977490324,-0.0006720153032802045,1.1046608686447144,0.11523925513029099,0.6991402506828308,2.4509522914886475,-0.40763115882873535,2.431316614151001,3.0761260986328125
304996.38377490325,-0.03716565668582916,0.5629876852035522,0.5611827373504639,-0.2285507768392563,1.1482709646224976,1.2595494985580444,0.03246881440281868,1.2385581731796265
304996.3877749032,-0.06352658569812775,0.8029106855392456,0.9866474866867065,-0.31052619218826294,1.362501621246338,2.24727725982666,0.24293339252471924,0.9664295315742493
304996.3917749032,-0.07122444361448288,0.9261280298233032,1.1330664157867432,-0.38680601119995117,1.6019296646118164,2.5933690071105957,0.227230966091156,1.1685043573379517
304996.39577490324,-0.05347047001123428,0.3236948251724243,0.8441697955131531,0.2176324427127838,-0.11789555847644806,1.2390387058258057,1.7522070407867432,-0.06621422618627548
304996.3997749032,-0.07042961567640305,0.3358999788761139,1.208823323249817,0.7605112195014954,-0.05567727982997894,0.7835447192192078,2.1496918201446533,1.4670411348342896
304996.4037749032,-0.07782763242721558,0.28959140181541443,1.4366029500961304,1.3372819423675537,0.07599887251853943,0.041928790509700775,2.123591423034668,3.1213555335998535
304996.40777490323,-0.08910474926233292,0.3249640166759491,1.6404551267623901,1.5315437316894531,0.04108485206961632,-0.004600212909281254,2.458097457885742,3.6911604404449463
304996.41177490324,-0.04074883460998535,-0.015119400806725025,0.5792791247367859,1.0932791233062744,0.9591273665428162,0.09490794688463211,-0.23981957137584686,0.8962534070014954
304996.4157749032,-0.0400187186896801,-0.0625484362244606,0.5256134867668152,1.3622726202011108,1.7397801876068115,1.1047652959823608,0.39956143498420715,0.7238006591796875
304996.4197749032,-0.030094848945736885,-0.10491663217544556,0.3584190011024475,1.4154088497161865,2.4079787731170654,2.2354819774627686,1.2483112812042236,0.565311074256897
304996.42377490323,-0.03400490805506706,-0.12266995757818222,0.3941241502761841,1.6305595636367798,2.763246774673462,2.6031291484832764,1.3915671110153198,0.5172798037528992
304996.42777490325,0.009982864372432232,-0.10269025713205338,-0.0931842103600502,0.1655779480934143,0.7580451369285583,1.5246397256851196,2.0111639499664307,2.2550055980682373
304996.4317749032,0.04111841693520546,-0.09347562491893768,-0.13484373688697815,-0.07098335772752762,0.47959136962890625,1.2227667570114136,1.8875542879104614,2.560318946838379
304996.4357749032,0.07614067941904068,-0.05673307925462723,-0.1568879932165146,-0.3306564390659332,0.03953856602311134,0.5644220113754272,1.2767857313156128,2.1815412044525146
304996.43977490324,0.08727426081895828,-0.06621861457824707,-0.1761365830898285,-0.4133538007736206,0.01658392883837223,0.6109528541564941,1.4362940788269043,2.5221004486083984
304996.44377490325,0.10581144690513611,0.173481285572052,0.22540059685707092,0.2699011266231537,0.299670547246933,0.24646136164665222,0.38422778248786926,-0.025474024936556816
304996.4477749032,0.17598271369934082,0.3305501639842987,0.47335273027420044,0.6273782253265381,0.7382485270500183,0.8355981111526489,1.188721776008606,0.7607236504554749
304996.4517749032,0.201780766248703,0.3781510889530182,0.5378625392913818,0.7120572924613953,0.8242932558059692,0.9121099710464478,1.3229196071624756,0.789522647857666
304996.45577490324,0.11022210121154785,0.2706567049026489,0.477524995803833,0.7319779396057129,1.0410033464431763,1.3111836910247803,1.6280494928359985,1.7837897539138794
304996.45977490325,0.17101295292377472,0.440634161233902,0.7572706341743469,1.0489001274108887,1.4797208309173584,1.549466848373413,1.4504073858261108,1.3629363775253296
304996.4637749032,0.2727774679660797,0.6950082778930664,1.1063424348831177,1.3603723049163818,1.5722607374191284,1.3961101770401,0.9890111684799194,0.6676204204559326
304996.4677749032,0.3569093644618988,0.9013622403144836,1.354061245918274,1.4853991270065308,1.3607702255249023,0.8432479500770569,0.2238643616437912,-0.25522589683532715
304996.47177490324,0.4061105251312256,1.0242961645126343,1.5421054363250732,1.695204734802246,1.550895094871521,0.9385826587677002,0.13716265559196472,-0.41633665561676025
304996.47577490326,0.24510347843170166,0.5808658599853516,0.6603403687477112,0.34899774193763733,-0.08412471413612366,-0.34902405738830566,0.892215371131897,1.4335633516311646
304996.4797749032,0.3676569163799286,0.7981156706809998,0.6757015585899353,0.13249261677265167,-0.043170638382434845,0.527952253818512,3.7259600162506104,2.2550058364868164
304996.48377490323,0.4605378806591034,0.9234168529510498,0.5588783025741577,-0.17133542895317078,0.08213550597429276,1.6096928119659424,6.622498989105225,2.6967780590057373
304996.48777490325,0.5240151286125183,1.0531660318374634,0.6298229694366455,-0.20445798337459564,0.04932559281587601,1.8428658246994019,7.776172161102295,3.250690460205078
304996.49177490326,0.3183465600013733,0.4046916961669922,-0.048061173409223557,0.10378824919462204,1.1398184299468994,1.5528539419174194,0.3998703062534332,0.21441875398159027
304996.4957749032,0.48106905817985535,0.5420140027999878,-0.15312929451465607,0.3685706555843353,1.9214802980422974,2.0301053524017334,-0.12135002017021179,1.0405734777450562
304996.49977490323,0.553613543510437,0.6263696551322937,-0.1855815201997757,0.41645348072052,2.2211172580718994,2.386871099472046,-0.12723125517368317,1.0048762559890747
304996.50377490325,0.29469096660614014,0.1523137092590332,-0.12704437971115112,0.894384503364563,1.1484323740005493,0.0495741069316864,0.47996076941490173,2.0531721115112305
304996.5077749032,0.4060908257961273,0.10616903752088547,0.0584476999938488,1.4694839715957642,1.0141630172729492,0.1523573398590088,1.661155104637146,1.9809201955795288
304996.5117749032,0.4761504530906677,0.02612898498773575,0.29029691219329834,1.906640887260437,0.5993505120277405,0.37738460302352905,2.799882411956787,1.2509655952453613
304996.51577490324,0.5401756167411804,0.02413927949965,0.3343592882156372,2.1944754123687744,0.6671006679534912,0.37286514043807983,3.333921194076538,1.5012754201889038
304996.51977490325,0.2621438503265381,-0.08114826679229736,0.54150390625,0.7936543226242065,-0.18940035998821259,1.5034574270248413,0.8810149431228638,0.07506433129310608
304996.5237749032,0.34742602705955505,-0.12202540785074234,0.989520788192749,0.6575513482093811,0.21082483232021332,2.071749687194824,0.24337872862815857,2.419475555419922
304996.5277749032,0.39635199308395386,-0.14170478284358978,1.4000684022903442,0.33133405447006226,0.7307220101356506,2.3126540184020996,-0.4613417387008667,5.1740851402282715
304996.53177490324,0.4496159851551056,-0.1605837047100067,1.5973461866378784,0.3703755736351013,0.8273022770881653,2.700648307800293,-0.6850639581680298,6.075523376464844
304996.53577490326,0.19626063108444214,-0.015853112563490868,0.8599850535392761,-0.22108393907546997,1.4330036640167236,0.13549643754959106,1.2948815822601318,1.1787362098693848
304996.5397749032,0.24834531545639038,0.07059665769338608,1.0484546422958374,-0.06582768261432648,1.8771018981933594,0.09711089730262756,2.4059536457061768,0.8532329201698303
304996.5437749032,0.26980477571487427,0.18076860904693604,1.0847558975219727,0.16740573942661285,2.0287179946899414,0.1274261623620987,3.2010350227355957,0.4980562925338745
304996.54777490324,0.30573511123657227,0.20561011135578156,1.236681342124939,0.1836092621088028,2.314495325088501,0.0625203549861908,3.770033836364746,0.4372914433479309
304996.55177490326,0.11267444491386414,0.29206782579421997,0.24940225481987,0.700847864151001,0.2306487113237381,1.193440556526184,0.0059422277845442295,1.8653043508529663
304996.5557749032,0.12917865812778473,0.5261800289154053,0.1099383533000946,1.337486982345581,0.012083932757377625,2.009915590286255,-0.10376843065023422,2.363903045654297
304996.55977490323,0.12696075439453125,0.7349538207054138,-0.09220279008150101,1.9093763828277588,-0.24281711876392365,2.601285457611084,0.031901128590106964,2.331500768661499
304996.56377490325,0.14314092695713043,0.8418568968772888,-0.1172771081328392,2.2024171352386475,-0.2903919816017151,3.036686420440674,-0.08336745947599411,2.720533847808838
304996.56777490326,0.033008597791194916,0.5536332130432129,-0.18076792359352112,1.0465240478515625,0.5002935528755188,0.23710815608501434,2.0236382484436035,-0.6501497030258179
304996.5717749032,0.022662507370114326,0.8180516362190247,-0.07712109386920929,0.9758549928665161,1.286656379699707,0.03965676948428154,2.292210817337036,0.5386782288551331
304996.57577490323,0.006260815542191267,1.0091981887817383,0.08338916301727295,0.6937258243560791,2.0464274883270264,-0.12146884948015213,2.064945936203003,2.1085212230682373
304996.57977490325,0.005767332389950752,1.15128493309021,0.09752435237169266,0.7699054479598999,2.386378765106201,-0.14946424961090088,2.371497869491577,2.435286045074463
304996.58377490327,-0.02489449642598629,0.5189311504364014,0.4265844523906708,-0.21521875262260437,1.2269372940063477,1.0691242218017578,-0.27630800008773804,1.7319004535675049
304996.5877749032,-0.04726802557706833,0.6437187194824219,0.8413553833961487,-0.17811332643032074,1.0087058544158936,2.043727397918701,0.30653390288352966,1.2624081373214722
304996.59177490324,-0.06815066933631897,0.6849505305290222,1.229219675064087,-0.036586642265319824,0.5266314148902893,2.816274881362915,1.1511324644088745,0.5556979179382324
304996.59577490325,-0.07831209897994995,0.7793416380882263,1.4014973640441895,-0.0537097305059433,0.5872998237609863,3.3164756298065186,1.2958989143371582,0.4833284616470337
304996.59977490327,-0.05422678962349892,0.23296792805194855,0.8847799897193909,0.5525880455970764,-0.11150212585926056,0.5037683844566345,1.9359190464019775,1.2172433137893677
304996.6037749032,-0.07273021340370178,0.21686844527721405,1.1496142148971558,1.2023082971572876,0.2738229036331177,0.023940926417708397,1.7805017232894897,2.2350993156433105
304996.60777490324,-0.08171176165342331,0.1576625406742096,1.260372281074524,1.825160026550293,0.7626223564147949,-0.5279229879379272,1.1897525787353516,2.9157989025115967
304996.61177490326,-0.09358327835798264,0.1731753945350647,1.4316595792770386,2.0966315269470215,0.8619391918182373,-0.6846520304679871,1.3159817457199097,3.5074195861816406
304996.6157749033,-0.025248879566788673,-0.0712374672293663,0.3015340268611908,0.9791600108146667,1.4581414461135864,1.2032142877578735,0.06348796933889389,0.07686187326908112
304996.6197749032,-0.032276805490255356,-0.12592636048793793,0.2942788004875183,1.3106591701507568,2.2419776916503906,2.3263099193573,0.8487210869789124,0.1690007746219635
304996.62377490324,-0.03696122393012047,-0.15131349861621857,0.34633883833885193,1.5176661014556885,2.6468989849090576,2.659416675567627,0.9297444820404053,-0.00023292345576919615
304996.62777490326,0.010757699608802795,-0.09365120530128479,-0.13834691047668457,0.16368311643600464,0.6932089328765869,1.3077987432479858,2.1232426166534424,2.054081916809082
304996.6317749032,0.040461502969264984,-0.08493434637784958,-0.18424074351787567,0.05180467292666435,0.4467025399208069,0.9906713962554932,1.783504605293274,2.484905958175659
304996.63577490323,0.07419787347316742,-0.05238967388868332,-0.18550296127796173,-0.0760858803987503,0.08639252185821533,0.34189319610595703,0.9173963069915771,2.2780516147613525
304996.63977490325,0.08465323597192764,-0.060570403933525085,-0.2196132391691208,-0.10276123136281967,0.04019762948155403,0.3837010860443115,1.060123085975647,2.6477267742156982
304996.64377490326,0.08572515845298767,0.12042416632175446,0.12466032058000565,0.09154394268989563,-0.06171458587050438,0.02318202517926693,0.05833250284194946,-0.13370203971862793
304996.6477749032,0.15301309525966644,0.30016496777534485,0.4267551004886627,0.5523319244384766,0.635882556438446,0.8322604298591614,1.1210912466049194,2.0687096118927
304996.65177490324,0.21351340413093567,0.4828806221485138,0.7527613639831543,1.0627996921539307,1.428345799446106,1.7607488632202148,2.3876142501831055,4.644538879394531
304996.65577490325,0.24343419075012207,0.5511955618858337,0.8644920587539673,1.2240999937057495,1.6487724781036377,2.0484371185302734,2.7301394939422607,5.4182658195495605
304996.65977490327,0.1704542487859726,0.4360889196395874,0.7814893126487732,1.149959683418274,1.3811200857162476,1.6096680164337158,1.979085087776184,1.465406894683838
304996.6637749032,0.26855361461639404,0.7029513120651245,1.1735178232192993,1.4959897994995117,1.462716817855835,1.2952890396118164,1.2833296060562134,0.761108934879303
304996.66777490324,0.3478863835334778,0.9250079989433289,1.4692552089691162,1.6209050416946411,1.2772821187973022,0.604454517364502,-0.10615585744380951,-0.0745227187871933
304996.67177490325,0.39615398645401,1.0556153059005737,1.6675477027893066,1.8466922044754028,1.4489823579788208,0.6822378039360046,-0.16251108050346375,-0.2912757992744446
304996.67577490327,0.2751668095588684,0.6357137560844421,0.6500356793403625,0.2597912549972534,-0.17372989654541016,-0.015429427847266197,1.0130290985107422,1.7591924667358398
304996.6797749032,0.42444905638694763,0.9476080536842346,0.836523175239563,0.18410035967826843,-0.3008306622505188,0.46424320340156555,2.3525161743164062,3.040024757385254
304996.68377490324,0.48711588978767395,1.0898414850234985,0.9688783884048462,0.21675734221935272,-0.3611232340335846,0.5113781094551086,2.6585662364959717,3.5164921283721924
304996.68777490326,0.2758399248123169,0.4839477241039276,0.11903666704893112,-0.10134608298540115,0.48739922046661377,1.5938305854797363,1.7034844160079956,0.4645415246486664
304996.6917749032,0.3984725773334503,0.563564121723175,0.008202692493796349,0.09655238687992096,1.2482068538665771,1.9303141832351685,1.2607988119125366,0.2538580596446991
304996.69577490323,0.4865510165691376,0.5633670091629028,-0.1412278711795807,0.37578245997428894,1.9821678400039673,1.963023066520691,0.4719639718532562,0.2054288238286972
304996.69977490325,0.5526525378227234,0.638213038444519,-0.1592404693365097,0.42356202006340027,2.3076000213623047,2.247074604034424,0.434003621339798,0.032743990421295166
304996.70377490326,0.2922639846801758,0.1527966856956482,-0.11198756843805313,0.8605243563652039,1.313796877861023,-0.1791038066148758,0.4709027111530304,2.3528623580932617
304996.7077749032,0.4047955572605133,0.10634022206068039,0.06225953996181488,1.3677383661270142,1.0558382272720337,-0.116973377764225,1.7004050016403198,2.3814737796783447
304996.71177490323,0.4746972620487213,0.021342694759368896,0.2817017138004303,1.7444252967834473,0.5145742297172546,0.10860906541347504,3.0042083263397217,1.7526459693908691
304996.71577490325,0.5398121476173401,0.024576475843787193,0.32334914803504944,1.994035005569458,0.5588167905807495,0.05385231226682663,3.4544849395751953,2.039778470993042
304996.71977490326,0.2643338739871979,-0.1008012518286705,0.5332720279693604,0.791822612285614,-0.2678302526473999,1.3878059387207031,1.0034992694854736,-0.08173845708370209
304996.7237749032,0.3490036427974701,-0.13608501851558685,0.934709906578064,0.6773378849029541,0.13086968660354614,2.047943592071533,0.4937003254890442,1.3537044525146484
304996.72777490324,0.39511531591415405,-0.1477261483669281,1.2792850732803345,0.38806235790252686,0.7008901834487915,2.4186787605285645,-0.10470413416624069,3.016921043395996
304996.73177490325,0.447818398475647,-0.17470189929008484,1.4691272974014282,0.4318258464336395,0.7987557053565979,2.844491720199585,-0.2568315863609314,3.4579758644104004
304996.73577490327,0.1991657018661499,-0.003548347158357501,0.8562226891517639,-0.24274620413780212,1.4190375804901123,0.161302849650383,1.177838683128357,0.9435080885887146
304996.7397749032,0.24884089827537537,0.08239235728979111,1.0288716554641724,-0.14730709791183472,1.8760920763015747,0.0754883885383606,2.0101096630096436,0.6496395468711853
304996.74377490324,0.26770880818367004,0.1885031759738922,1.0549302101135254,0.05335857719182968,2.0553698539733887,0.0549621656537056,2.5683577060699463,0.3581930100917816
304996.74777490326,0.30301547050476074,0.21231110394001007,1.1913882493972778,0.04951048269867897,2.391885995864868,-0.01856359653174877,2.9819281101226807,0.2855822443962097
304996.75177490327,0.11283279210329056,0.2864392399787903,0.2389763444662094,0.7537978291511536,0.29221636056900024,1.1668511629104614,0.11551286280155182,1.9864320755004883
304996.7557749032,0.1289004534482956,0.5221453309059143,0.11021392047405243,1.3627867698669434,0.12274481356143951,1.895143985748291,0.013153044506907463,2.5339558124542236
304996.75977490324,0.12605778872966766,0.7375451922416687,-0.07557950913906097,1.8661659955978394,-0.09125564992427826,2.4146885871887207,0.09263516217470169,2.5156445503234863
304996.76377490326,0.14207176864147186,0.8410160541534424,-0.09626855701208115,2.153266191482544,-0.13244569301605225,2.7863988876342773,-0.03343363106250763,2.9568281173706055
304996.7677749033,0.03169287368655205,0.5518226027488708,-0.1475648730993271,1.0118697881698608,0.47770676016807556,0.37711992859840393,1.9259309768676758,-0.6199580430984497
304996.77177490323,0.020277904346585274,0.8034698963165283,-0.014087150804698467,0.9390115737915039,1.3188097476959229,0.189127579331398,2.276329755783081,1.7942140102386475
304996.77577490325,0.0012542682234197855,0.9800865650177002,0.16202017664909363,0.6596071124076843,2.1678032875061035,-0.01821080595254898,2.1740200519561768,4.943377494812012
304996.77977490326,0.0015399380354210734,1.1149578094482422,0.18756738305091858,0.7368515729904175,2.499431610107422,-0.08186592906713486,2.57069993019104,5.630991458892822
304996.7837749033,-0.026636362075805664,0.5481536388397217,0.42395472526550293,-0.18911533057689667,1.1866313219070435,1.0503349304199219,-0.31070777773857117,1.871100902557373
304996.78777490323,-0.048599354922771454,0.6678852438926697,0.8481361865997314,-0.19912169873714447,1.026068091392517,1.9500187635421753,0.33510828018188477,1.1308956146240234
304996.79177490325,-0.06681834161281586,0.6943120360374451,1.2500063180923462,-0.13584239780902863,0.6009998917579651,2.6317458152770996,1.2768568992614746,0.15382225811481476
304996.79577490326,-0.07637399435043335,0.7871294021606445,1.4239505529403687,-0.16701851785182953,0.6630942225456238,3.1219642162323,1.4440757036209106,-0.054665982723236084
304996.7997749033,-0.04796814173460007,0.2346775382757187,0.872411847114563,0.5326356291770935,-0.24669675529003143,0.5225321054458618,2.670027494430542,1.1515769958496094
304996.80377490324,-0.06743449717760086,0.20582212507724762,1.1300045251846313,1.170593500137329,0.18532472848892212,0.1857386827468872,2.6023294925689697,2.0425713062286377
304996.80777490325,-0.0775662362575531,0.1293821483850479,1.2387994527816772,1.7861473560333252,0.7381791472434998,-0.16892875730991364,1.6553388833999634,2.698438882827759
304996.81177490327,-0.0901775062084198,0.1424054503440857,1.417706847190857,2.053363561630249,0.841342568397522,-0.3255006670951843,1.965227484703064,3.1406619548797607
304996.8157749033,-0.026870528236031532,-0.06563808768987656,0.2981797158718109,0.9843659996986389,1.4438502788543701,1.1731833219528198,0.3790114223957062,-0.016522066667675972
304996.81977490324,-0.03488253429532051,-0.113508440554142,0.29515984654426575,1.329217791557312,2.2455344200134277,2.22598934173584,1.0988147258758545,0.18318311870098114
304996.82377490326,-0.041439544409513474,-0.1343211978673935,0.3458692729473114,1.5372049808502197,2.647094249725342,2.566368818283081,1.2276612520217896,0.21527166664600372
304996.8277749033,0.013766131363809109,-0.09532072395086288,-0.14290204644203186,0.11470452696084976,0.8902298212051392,1.7937928438186646,2.3396167755126953,2.6976563930511475
304996.8317749032,0.013772967271506786,-0.11241316050291061,-0.16441255807876587,0.16075502336025238,1.0567430257797241,2.0514962673187256,2.6490869522094727,2.9840893745422363
304996.83577490324,0.0702686756849289,-0.013415665365755558,-0.17853546142578125,-0.18325604498386383,-0.4458328187465668,0.2260715365409851,0.6768900156021118,1.258958339691162
304996.8397749032,0.07719424366950989,-0.02312975563108921,-0.20717623829841614,-0.2193572074174881,-0.46850112080574036,0.28652724623680115,0.8366446495056152,1.5279648303985596
304996.8437749032,0.08505313098430634,0.12818177044391632,0.13551601767539978,0.1154354140162468,0.09761831909418106,-0.23365136981010437,-0.35404667258262634,-0.4100879728794098
304996.8477749032,0.15233100950717926,0.2994701564311981,0.4401155710220337,0.6039303541183472,0.7384320497512817,0.6784235835075378,0.7443410158157349,0.82041335105896
304996.8517749032,0.2131567746400833,0.4729257822036743,0.7705394625663757,1.1563211679458618,1.4870929718017578,1.7405269145965576,2.0356578826904297,2.316805362701416
304996.8557749032,0.24307012557983398,0.5401922464370728,0.8824267387390137,1.3179248571395874,1.7059526443481445,2.02346134185791,2.402794361114502,2.697946071624756
304996.8597749032,0.1725383698940277,0.42854589223861694,0.7766552567481995,1.109145998954773,1.3817602396011353,1.5202966928482056,1.5906245708465576,1.4975634813308716
304996.8637749032,0.27159586548805237,0.7061501741409302,1.1807953119277954,1.4583837985992432,1.5255872011184692,1.3022818565368652,1.1726319789886475,0.8570544719696045
304996.8677749032,0.3522132635116577,0.9422115683555603,1.491824746131897,1.6086901426315308,1.3544414043426514,0.7169967293739319,0.41986268758773804,0.06546767055988312
304996.8717749032,0.4001498222351074,1.0734494924545288,1.7070502042770386,1.8459134101867676,1.5383304357528687,0.797641396522522,0.415305495262146,-0.11823112517595291
304996.8757749032,0.24637219309806824,0.5682977437973022,0.661223292350769,0.297521710395813,-0.19844064116477966,-0.16527706384658813,0.3875972628593445,1.4370988607406616
304996.8797749032,0.36708778142929077,0.7699980735778809,0.6760052442550659,0.06715124100446701,-0.17259666323661804,0.5501506328582764,1.642225742340088,2.1437649726867676
304996.8837749032,0.4566136598587036,0.8875320553779602,0.5691593289375305,-0.20394761860370636,-0.01018140185624361,1.4221787452697754,2.8218913078308105,2.4917068481445312
304996.8877749032,0.5195275545120239,1.0119340419769287,0.6395282745361328,-0.2735375761985779,-0.02957492135465145,1.6369966268539429,3.3701350688934326,2.959225654602051
304996.8917749032,0.287810742855072,0.40644729137420654,-0.017006998881697655,-0.053670044988393784,0.9114420413970947,1.598386287689209,0.8285809755325317,-0.7404398918151855
304996.8957749032,0.40937453508377075,0.44678810238838196,-0.12697547674179077,0.3515200614929199,1.530302882194519,1.6314749717712402,0.4632444679737091,1.2297099828720093
304996.8997749032,0.4958439767360687,0.41531163454055786,-0.23320311307907104,0.8590224981307983,2.027256488800049,1.277974247932434,0.04149562120437622,4.060548782348633
304996.9037749032,0.5623237490653992,0.4691825211048126,-0.27221789956092834,0.9791414737701416,2.3300070762634277,1.445890188217163,-0.04314808174967766,4.508698463439941
304996.90777490323,0.2797592878341675,0.0720059722661972,0.016527490690350533,1.089745283126831,0.8068761825561523,-0.45872488617897034,1.4418083429336548,1.7358689308166504
304996.9117749032,0.39066919684410095,0.017379388213157654,0.26836878061294556,1.517989158630371,0.4446083903312683,0.241436168551445,2.37632417678833,1.0389246940612793
304996.9157749032,0.4640860855579376,-0.05574481561779976,0.561288595199585,1.7650068998336792,-0.09643590450286865,1.209537386894226,2.922539710998535,-0.10774290561676025
304996.9197749032,0.5271714329719543,-0.07206965982913971,0.6404241323471069,2.009063959121704,-0.1444750875234604,1.364027976989746,3.448876142501831,-0.1923062652349472
304996.92377490323,0.24410443007946014,-0.09789909422397614,0.6643813848495483,0.4803604185581207,-0.054105743765830994,1.6118409633636475,-0.1813374161720276,0.7988225221633911
304996.9277749032,0.32468414306640625,-0.1204230934381485,1.074645757675171,0.3054327666759491,0.6859132051467896,1.7038681507110596,-0.08658358454704285,2.0303266048431396
304996.9317749032,0.3700243830680847,-0.12213709205389023,1.4089564085006714,0.037150438874959946,1.5653074979782104,1.3719016313552856,0.2821674048900604,3.0894768238067627
304996.9357749032,0.42076584696769714,-0.13678207993507385,1.6118812561035156,0.015713023021817207,1.796766757965088,1.5884989500045776,0.23356735706329346,3.6686513423919678
304996.93977490324,0.18281719088554382,0.0998009666800499,0.7449018359184265,0.050443150103092194,1.3660428524017334,-0.12334852665662766,3.174268960952759,-0.03350399062037468
304996.9437749032,0.25945815443992615,0.20581085979938507,1.0122071504592896,0.1849045753479004,1.9230951070785522,0.028957510367035866,5.251765251159668,-0.04264889284968376
304996.9477749032,0.29927486181259155,0.23473219573497772,1.176648497581482,0.20241102576255798,2.2221202850341797,0.009997106157243252,6.392146587371826,-0.20951223373413086
304996.9517749032,0.11336361616849899,0.290693461894989,0.23386909067630768,0.6875521540641785,0.23582105338573456,1.3238451480865479,0.5589641332626343,2.06453013420105
304996.9557749032,0.1300409585237503,0.5317969918251038,0.11836745589971542,1.3048635721206665,0.03356076031923294,2.0564942359924316,0.49028968811035156,2.5375075340270996
304996.9597749032,0.12754838168621063,0.7504470944404602,-0.04915225878357887,1.8797452449798584,-0.1921948492527008,2.526458263397217,0.4885321259498596,2.38314151763916
304996.9637749032,0.1439162939786911,0.8585644364356995,-0.06323253363370895,2.1322340965270996,-0.24350087344646454,2.9111685752868652,0.44743815064430237,2.7925329208374023
304996.9677749032,0.03213018551468849,0.5618835687637329,-0.13700352609157562,0.9618320465087891,0.458547979593277,0.37460213899612427,1.959466814994812,-0.10971903800964355
304996.9717749032,0.020257029682397842,0.8197261691093445,-0.04880334809422493,0.8853670358657837,1.2042409181594849,0.13190211355686188,2.431147336959839,1.0469197034835815
304996.9757749032,0.0028310271445661783,1.0073679685592651,0.0967179462313652,0.6137756109237671,1.9225517511367798,-0.16011781990528107,2.3463637828826904,2.643472671508789
304996.9797749032,0.0010650373296812177,1.150100588798523,0.09906552731990814,0.6900988221168518,2.231304407119751,-0.2171906679868698,2.752178192138672,2.9693915843963623
304996.98377490323,-0.027968594804406166,0.5141463875770569,0.4375454783439636,-0.15339602530002594,1.1374319791793823,0.977851927280426,-0.30285826325416565,1.8449208736419678
304996.9877749032,-0.05089885741472244,0.64596027135849,0.8532775640487671,-0.1113123968243599,0.9998339414596558,1.9586105346679688,0.48105114698410034,0.9224866032600403
304996.9917749032,-0.0695299580693245,0.6932964324951172,1.227846384048462,-0.014592480845749378,0.6098158955574036,2.8107597827911377,1.503986120223999,-0.33652588725090027
304996.9957749032,-0.08033891767263412,0.7874195575714111,1.4137380123138428,-0.032788489013910294,0.674064040184021,3.284137487411499,1.6630971431732178,-0.5615578293800354
304996.99977490323,-0.04938645288348198,0.2326374053955078,0.8654428124427795,0.5449334383010864,-0.39419588446617126,0.5051061511039734,2.057253360748291,1.2325373888015747
304997.0037749032,-0.06944666802883148,0.21165478229522705,1.11750328540802,1.1858038902282715,0.047589585185050964,0.1285860240459442,1.9180402755737305,2.2361042499542236
304997.0077749032,-0.07987500727176666,0.14633485674858093,1.2261180877685547,1.8019914627075195,0.6808939576148987,-0.31171002984046936,1.2771363258361816,2.95731520652771
304997.0117749032,-0.09156092256307602,0.16054928302764893,1.386902928352356,2.069845676422119,0.777921199798584,-0.39032068848609924,1.4101758003234863,3.5150985717773438
304997.01577490324,-0.03150264173746109,-0.036829348653554916,0.3795431852340698,1.081408977508545,1.3608886003494263,0.8009852766990662,0.034828443080186844,-0.3021896183490753
304997.0197749032,-0.022190524265170097,-0.09985270351171494,0.28192317485809326,1.101568579673767,1.833537220954895,1.7721245288848877,1.2408279180526733,0.9961820840835571
304997.0237749032,-0.005167796742171049,-0.15366101264953613,0.09951678663492203,0.9067479372024536,2.0609490871429443,2.636200428009033,2.6614902019500732,3.0319247245788574
304997.0277749032,-0.005068706348538399,-0.18442776799201965,0.10619445145130157,1.0256282091140747,2.363398551940918,3.0369527339935303,3.0469019412994385,3.294153928756714
304997.03177490324,0.026688361540436745,-0.07428920269012451,-0.14316359162330627,-0.06567230075597763,0.1915469914674759,0.7412220239639282,1.3276344537734985,2.177924156188965
304997.0357749032,0.06618873029947281,-0.005677527282387018,-0.1282866895198822,-0.08690173178911209,-0.09929778426885605,0.31762683391571045,0.7853360176086426,1.6924877166748047
304997.0397749032,0.1071113869547844,0.08354200422763824,-0.047800179570913315,-0.054896995425224304,-0.4040606915950775,-0.20188869535923004,-0.06122388318181038,0.7990626096725464
304997.0437749032,0.12209015339612961,0.09737635403871536,-0.061671867966651917,-0.07639927417039871,-0.4952963888645172,-0.312868595123291,-0.1604996770620346,0.7659664154052734
304997.04777490324,0.10714911669492722,0.20416559278964996,0.2866494357585907,0.3595782220363617,0.41942742466926575,0.5441901683807373,0.6051474213600159,0.5438141226768494
304997.0517749032,0.18382628262043,0.4123663008213043,0.6934924125671387,0.9384109377861023,1.2888710498809814,1.639020562171936,1.8560808897018433,1.86827552318573
304997.0557749032,0.25137850642204285,0.6083547472953796,1.1049880981445312,1.508536696434021,2.1853933334350586,2.7140862941741943,3.1099746227264404,3.1951093673706055
304997.05977490323,0.286220520734787,0.6973487138748169,1.2622673511505127,1.741990566253662,2.5043394565582275,3.168769121170044,3.5739550590515137,3.6790552139282227
304997.06377490325,0.1903316080570221,0.516282856464386,0.8904702663421631,1.2121355533599854,1.2108752727508545,1.1189861297607422,0.7143179774284363,0.007352087181061506
304997.0677749032,0.29931530356407166,0.7633390426635742,1.186422348022461,1.3261961936950684,1.0436468124389648,0.7394047379493713,0.1996135413646698,0.0702790766954422
304997.0717749032,0.3875458836555481,0.9484485387802124,1.328502893447876,1.2048051357269287,0.6356704235076904,0.17743340134620667,-0.3769412636756897,0.4809665083885193
304997.07577490323,0.4413856863975525,1.0794013738632202,1.5189048051834106,1.367121934890747,0.689400315284729,0.14060989022254944,-0.559658408164978,0.3716903626918793
304997.07977490325,0.2580852508544922,0.5634463429450989,0.5002498626708984,0.07819385081529617,-0.34047478437423706,0.3962726593017578,2.54978609085083,2.366119384765625
304997.0837749032,0.37870365381240845,0.7166704535484314,0.4433136284351349,-0.04386167973279953,0.06250555068254471,1.3647512197494507,4.460518836975098,2.0388453006744385
304997.0877749032,0.4675259292125702,0.7849719524383545,0.28686630725860596,-0.17300234735012054,0.6581284403800964,2.399214744567871,5.557662010192871,1.014397382736206
304997.09177490324,0.5307632088661194,0.8892409801483154,0.3174102008342743,-0.20808713138103485,0.748900830745697,2.7515652179718018,6.542926788330078,1.1712275743484497
304997.09577490325,0.3165261745452881,0.31424930691719055,-0.1524324268102646,0.3790452480316162,1.4536116123199463,1.0779508352279663,-0.1851544827222824,0.8639134168624878
304997.0997749032,0.47803643345832825,0.403682142496109,-0.2066713124513626,0.8627873659133911,2.199531316757202,1.1009551286697388,-0.42163392901420593,2.2636146545410156
304997.1037749032,0.5495187640190125,0.4668429493904114,-0.25190290808677673,0.9826248288154602,2.5530221462249756,1.2917683124542236,-0.5020523071289062,2.4964144229888916
304997.10777490324,0.29241684079170227,0.09240081906318665,-0.07260044664144516,1.0690306425094604,0.9043065309524536,-0.640353798866272,1.7528965473175049,1.961594820022583
304997.1117749032,0.4075954556465149,0.0600588358938694,0.14752252399921417,1.5049017667770386,0.7259212136268616,-0.10855508595705032,2.577846050262451,1.7585093975067139
304997.1157749032,0.4317680597305298,-0.03158670291304588,0.5100903511047363,1.5155061483383179,0.1169024333357811,1.1051602363586426,2.35233736038208,0.6630899906158447
304997.1197749032,0.4350772798061371,-0.12426663935184479,0.8776743412017822,1.3618015050888062,-0.4347832202911377,2.4301652908325195,1.5428657531738281,-0.29029592871665955
304997.12377490324,0.46316397190093994,-0.15550027787685394,1.0139514207839966,1.440504550933838,-0.6685160994529724,2.87925124168396,1.5808799266815186,-0.7608405351638794
304997.12777490326,0.2353908270597458,-0.08803663402795792,0.868621826171875,0.16562533378601074,0.4411971867084503,1.5795156955718994,-0.24927467107772827,1.8818024396896362
304997.1317749032,0.3041475713253021,-0.060461971908807755,1.1969002485275269,0.02155202254652977,1.268907070159912,1.162597894668579,0.5542305111885071,2.359226942062378
304997.13577490323,0.3375721573829651,-0.008812135085463524,1.3899335861206055,-0.12002824246883392,2.086714267730713,0.3988484740257263,1.6422045230865479,2.280487537384033
304997.13977490325,0.38299256563186646,-0.009340555407106876,1.5844718217849731,-0.16333164274692535,2.4266600608825684,0.4255400002002716,1.861106514930725,2.6982221603393555
304997.14377490326,0.15996970236301422,0.17385317385196686,0.5952938199043274,0.23262402415275574,1.101556420326233,0.36538439989089966,1.4858146905899048,0.6186749339103699
304997.1477749032,0.22501444816589355,0.3300383388996124,0.7402534484863281,0.597524881362915,1.3164498805999756,0.9428698420524597,1.811257243156433,2.3842806816101074
304997.15177490324,0.25964927673339844,0.3778839409351349,0.8572943210601807,0.6718218326568604,1.539409875869751,1.0584648847579956,2.1416428089141846,2.53183650970459
304997.15577490325,0.0918312519788742,0.362094908952713,0.0538908950984478,0.9839537143707275,-0.08308275789022446,1.8352115154266357,-0.47139832377433777,2.279531717300415
304997.1597749032,0.10136920213699341,0.6128974556922913,-0.04156722128391266,1.5608552694320679,-0.056144241243600845,2.0521671772003174,0.3335113227367401,1.8362362384796143
304997.1637749032,0.09468072652816772,0.8296014070510864,-0.14255325496196747,1.9862797260284424,0.03800734132528305,1.829844355583191,1.4332315921783447,0.9249280691146851
304997.16777490324,0.10665842890739441,0.9462423324584961,-0.1634138822555542,2.2747514247894287,0.017802121117711067,2.1013853549957275,1.6446688175201416,0.9960868954658508
304997.17177490325,0.012074355967342854,0.5910618305206299,-0.10847211629152298,0.7085784077644348,0.991499662399292,-0.19006513059139252,1.7066141366958618,0.2669326066970825
304997.1757749032,-0.0020771543495357037,0.825716495513916,0.08669029176235199,0.5145107507705688,1.6958696842193604,0.0012901779264211655,1.404272437095642,1.8502007722854614
304997.1797749032,-0.019908778369426727,0.9843652844429016,0.3424636423587799,0.1640201359987259,2.2515337467193604,0.414288729429245,0.6692113280296326,3.4388232231140137
304997.18377490324,-0.023519625887274742,1.1203582286834717,0.3906504809856415,0.174872487783432,2.604332447052002,0.41517528891563416,0.741162121295929,4.082242965698242
304997.18777490326,-0.038340795785188675,0.4611566960811615,0.6028915047645569,-0.21448366343975067,0.7691554427146912,1.4791979789733887,-0.09638641029596329,0.6129747033119202
304997.1917749032,-0.061402514576911926,0.5475531220436096,1.0204885005950928,0.0346529595553875,0.48557502031326294,1.9395273923873901,1.1902592182159424,0.597985565662384
304997.19577490323,-0.07790997624397278,0.5565354824066162,1.360102891921997,0.36185353994369507,0.07894250750541687,2.068535089492798,2.693162441253662,0.6639347076416016
304997.19977490325,-0.09023244678974152,0.6313163042068481,1.5689870119094849,0.4083000719547272,0.023241126909852028,2.3947932720184326,3.102854013442993,0.6220224499702454
304997.20377490326,-0.04283246025443077,0.14900650084018707,0.8208885192871094,0.828301191329956,0.021091850474476814,-0.07359693199396133,1.3969080448150635,1.9544174671173096
304997.2077749032,-0.05568065494298935,0.09864479303359985,0.9583486914634705,1.3237041234970093,0.6690137386322021,0.03612222895026207,0.8243440389633179,1.9027893543243408
304997.21177490323,-0.06177184730768204,0.013060756027698517,0.9504444599151611,1.7118747234344482,1.4254486560821533,0.27559536695480347,0.03695645183324814,1.3008556365966797
304997.21577490325,-0.07060900330543518,0.012683797627687454,1.081697940826416,1.9630876779556274,1.6411755084991455,0.28081977367401123,-0.10893657803535461,1.545461893081665
304997.21977490326,-0.0217099841684103,-0.07753437757492065,0.18446694314479828,0.8564745187759399,1.348778486251831,1.3542840480804443,1.3386574983596802,-0.024882718920707703
304997.2237749032,-0.005415845196694136,-0.11555562913417816,0.05981678515672684,0.7018454074859619,1.4603917598724365,2.040935516357422,3.9223005771636963,1.286081075668335
304997.22777490324,0.018634354695677757,-0.13748116791248322,-0.09630566090345383,0.3599358797073364,1.2934776544570923,2.4564011096954346,6.2765727043151855,2.6906042098999023
304997.23177490325,0.022080255672335625,-0.15469466149806976,-0.13507038354873657,0.3924199938774109,1.4778995513916016,2.86588978767395,7.426743030548096,3.1893723011016846
304997.23577490327,0.04681327939033508,-0.020875101909041405,-0.09948328137397766,-0.3147771656513214,-0.16157469153404236,0.18007874488830566,0.42540356516838074,1.0416454076766968
304997.2397749032,0.0962616503238678,0.07803511619567871,0.014339790679514408,-0.16166655719280243,-0.11503913998603821,0.006357870995998383,0.253120481967926,0.5941915512084961
304997.24377490324,0.14408038556575775,0.19691646099090576,0.18041406571865082,0.11146879196166992,0.06045465171337128,-0.11446357518434525,0.18551449477672577,0.15297123789787292
304997.24777490326,0.16446617245674133,0.2253788858652115,0.1964210569858551,0.12493571639060974,0.01596275344491005,-0.23499739170074463,0.13833008706569672,-0.027042193338274956
304997.25177490327,0.15339842438697815,0.3652097284793854,0.6111575365066528,0.881690502166748,1.189850091934204,1.511656403541565,1.7193758487701416,1.9621959924697876
304997.2557749032,0.24804021418094635,0.6189624667167664,1.0562576055526733,1.54021155834198,1.9923080205917358,2.5740764141082764,2.829082727432251,3.025053024291992
304997.25977490324,0.2847360074520111,0.7087070345878601,1.2064619064331055,1.766540288925171,2.3318116664886475,2.960043430328369,3.3031558990478516,3.5537772178649902
304997.26377490326,0.19419503211975098,0.5021098256111145,0.8789347410202026,1.1149147748947144,1.314443588256836,1.1252046823501587,0.5623856782913208,-0.0066954162903130054
304997.2677749032,0.29928913712501526,0.7555618286132812,1.159894585609436,1.2483373880386353,1.1108219623565674,0.5531222224235535,0.32657283544540405,0.5159674286842346
304997.27177490323,0.3823908865451813,0.9433711767196655,1.2893774509429932,1.1569726467132568,0.6386734843254089,-0.2723715603351593,0.13157784938812256,1.518354058265686
304997.27577490325,0.4344227910041809,1.078008770942688,1.4632667303085327,1.3101439476013184,0.6943619251251221,-0.35885679721832275,0.04976155608892441,1.509497046470642
304997.27977490326,0.2595764696598053,0.5357508063316345,0.49865028262138367,0.04958093911409378,-0.33453667163848877,0.293867290019989,1.44046151638031,2.1531074047088623
304997.2837749032,0.38131722807884216,0.6978027820587158,0.4332106411457062,-0.10510096698999405,0.08461924642324448,1.2728006839752197,2.325214147567749,1.7558356523513794
304997.28777490323,0.46939611434936523,0.7762437462806702,0.27166756987571716,-0.2588508725166321,0.6746821999549866,2.256103754043579,2.853391408920288,0.7968602180480957
304997.29177490325,0.5352431535720825,0.8819233179092407,0.2937367856502533,-0.29162707924842834,0.7732572555541992,2.656759738922119,3.3775649070739746,0.9436389207839966
304997.29577490326,0.2916063368320465,0.3157409727573395,-0.13642798364162445,0.2501536011695862,1.3416889905929565,1.3370119333267212,0.07515428960323334,-0.1263502538204193
304997.2997749032,0.4086415767669678,0.3228173851966858,-0.15982408821582794,0.8182164430618286,1.8162606954574585,0.9031369686126709,0.24109765887260437,1.5282764434814453
304997.30377490324,0.4886036813259125,0.26876741647720337,-0.12674613296985626,1.439024806022644,2.055654287338257,0.21725749969482422,0.603254497051239,3.3864400386810303
304997.30777490325,0.5539527535438538,0.3025849163532257,-0.15713262557983398,1.6400731801986694,2.395571231842041,0.15475435554981232,0.575867772102356,3.9065256118774414
304997.31177490327,0.2804158926010132,0.008028321899473667,0.1466744989156723,1.1184011697769165,0.24279797077178955,0.22369946539402008,1.9514950513839722,0.7862979173660278
304997.3157749032,0.3813204765319824,-0.06786242127418518,0.5003497004508972,1.3511171340942383,0.02814783714711666,1.0930172204971313,2.1040146350860596,0.524742841720581
304997.31977490324,0.44144758582115173,-0.15369978547096252,0.8777436017990112,1.3765430450439453,-0.22323043644428253,2.060513496398926,1.6726926565170288,0.2797849774360657
304997.32377490326,0.5005573630332947,-0.18034245073795319,1.0034679174423218,1.578950047492981,-0.2735997438430786,2.3791253566741943,1.9242206811904907,0.2018028050661087
304997.3277749033,0.23230458796024323,-0.08668991923332214,0.8144147992134094,0.1398613452911377,0.44406837224960327,1.337618350982666,-0.18719521164894104,2.2691330909729004
304997.3317749032,0.3030933141708374,-0.07557012140750885,1.2026571035385132,-0.01970052719116211,1.2819957733154297,0.9864906668663025,0.7554870843887329,2.489542245864868
304997.33577490324,0.3387283384799957,-0.03690791130065918,1.4677432775497437,-0.18555542826652527,2.1229372024536133,0.31732720136642456,1.9560890197753906,2.1056361198425293
304997.33977490326,0.3845592439174652,-0.04839777201414108,1.670503854751587,-0.23712407052516937,2.4550368785858154,0.32185375690460205,2.2006337642669678,2.4417150020599365
304997.3437749033,0.16127212345600128,0.1831587255001068,0.6012261509895325,0.26099294424057007,1.047702431678772,0.31152239441871643,1.634066104888916,0.31249794363975525
304997.34777490323,0.2259140908718109,0.335825115442276,0.7550806403160095,0.5977402925491333,1.2510915994644165,0.9472790956497192,1.9477903842926025,1.1330422163009644
304997.35177490325,0.2605647146701813,0.38271886110305786,0.8750952482223511,0.668392539024353,1.4718080759048462,1.0659103393554688,2.303426742553711,1.231956124305725
304997.35577490326,0.09201648086309433,0.3678540885448456,0.0594235435128212,1.0253891944885254,-0.11270159482955933,1.8304084539413452,-0.2276051640510559,1.8276218175888062
304997.3597749032,0.09888704121112823,0.628451406955719,-0.0770149827003479,1.4759376049041748,-0.10467693209648132,2.0979502201080322,1.315016508102417,1.656112790107727
304997.36377490324,0.08954227715730667,0.8572124242782593,-0.23710010945796967,1.74579918384552,-0.01686127297580242,1.9311600923538208,3.37536358833313,1.014215111732483
304997.36777490325,0.10064319521188736,0.9762440323829651,-0.28368499875068665,1.99022376537323,-0.07011272758245468,2.223936080932617,3.74391508102417,1.1074798107147217
304997.37177490327,0.012977082282304764,0.5684053897857666,-0.08096325397491455,0.6321670413017273,0.9384346604347229,-0.2370818853378296,3.2467267513275146,0.5118857026100159
304997.3757749032,-0.00541994534432888,0.8027705550193787,0.1178637221455574,0.4765450954437256,1.7287700176239014,-0.02886935882270336,2.338012456893921,1.9212687015533447
304997.37977490324,-0.028263665735721588,0.9509941935539246,0.3696571886539459,0.1823522299528122,2.4235193729400635,0.40851807594299316,0.8860883712768555,3.4066922664642334
304997.38377490325,-0.03363194316625595,1.0890426635742188,0.4246477782726288,0.18648938834667206,2.791869640350342,0.41378018260002136,0.8741709589958191,3.9280285835266113
304997.38777490327,-0.03368302434682846,0.47571587562561035,0.6016528010368347,-0.1744208037853241,0.7216809391975403,1.5921329259872437,0.0928216278553009,0.4745805859565735
304997.3917749032,-0.0593871995806694,0.5593945980072021,1.0412957668304443,0.04067466780543327,0.34784767031669617,2.056142807006836,1.333452820777893,0.6232874989509583
304997.39577490324,-0.080947645008564,0.5638119578361511,1.4221292734146118,0.3451393246650696,-0.194006085395813,2.1616437435150146,2.7207460403442383,1.0299015045166016
304997.39977490326,-0.09422039985656738,0.6398828625679016,1.6238666772842407,0.38998374342918396,-0.2657187581062317,2.5323731899261475,3.1754953861236572,0.9333170652389526
304997.4037749033,-0.044145528227090836,0.1487962156534195,0.788864254951477,0.8921256065368652,-0.0705597847700119,0.11314605176448822,1.4137532711029053,2.270911931991577
304997.40777490323,-0.05557769536972046,0.09862440079450607,0.9385144710540771,1.4331337213516235,0.6483165621757507,0.15409278869628906,0.8871782422065735,2.151069402694702
304997.41177490324,-0.06017143651843071,0.0160665363073349,0.9481855630874634,1.8286951780319214,1.5024476051330566,0.28733113408088684,0.0689096748828888,1.4380073547363281
304997.41577490326,-0.06760318577289581,0.014500655233860016,1.0836644172668457,2.113569974899292,1.727662444114685,0.23591914772987366,0.027341758832335472,1.7002203464508057
304997.4197749033,-0.013702861033380032,-0.0733194574713707,0.16201581060886383,0.7975274920463562,1.4726977348327637,1.3996204137802124,0.7397602796554565,0.0859517827630043
304997.42377490323,-0.00147215963806957,-0.1269320696592331,0.018272990360856056,0.6645567417144775,1.5566720962524414,2.031325340270996,1.903213620185852,1.3717927932739258
304997.42777490325,0.015302445739507675,-0.1718653440475464,-0.1670960634946823,0.3504454791545868,1.3315646648406982,2.3677167892456055,2.9898934364318848,2.8438897132873535
304997.43177490326,0.018128851428627968,-0.20138387382030487,-0.1948474794626236,0.38604873418807983,1.5053880214691162,2.7377359867095947,3.4300222396850586,3.2923200130462646
304997.4357749033,0.04482546076178551,-0.023963576182723045,-0.09109295159578323,-0.17520859837532043,-0.14772921800613403,-0.04458945617079735,0.4511154890060425,1.171367883682251
304997.43977490324,0.09445985406637192,0.06609052419662476,0.005558066535741091,-0.03804326057434082,-0.06031741946935654,-0.18169289827346802,0.03016781061887741,0.5550655722618103
304997.44377490325,0.14223001897335052,0.1815887987613678,0.15850302577018738,0.17987412214279175,0.14243997633457184,-0.14587067067623138,-0.3414267301559448,-0.19372129440307617
304997.44777490327,0.16249056160449982,0.20654729008674622,0.16991084814071655,0.1988532692193985,0.14330266416072845,-0.2575294077396393,-0.5078529119491577,-0.3662742078304291
304997.4517749033,0.12854664027690887,0.2926481366157532,0.4819333851337433,0.740717351436615,0.9621565341949463,1.2562739849090576,1.4215208292007446,1.9943392276763916
304997.45577490324,0.21340811252593994,0.5346795916557312,0.9330095052719116,1.3207651376724243,1.7196524143218994,2.097600221633911,2.090724468231201,2.64136004447937
304997.45977490325,0.28627341985702515,0.753669261932373,1.3533180952072144,1.8041681051254272,2.345480442047119,2.679287910461426,2.4177048206329346,2.657353401184082
304997.46377490327,0.325837641954422,0.8603723645210266,1.5484941005706787,2.0687453746795654,2.722681999206543,3.1490793228149414,2.828458309173584,3.130394220352173
304997.4677749033,0.2116386443376541,0.5438734292984009,0.9015354514122009,0.9918495416641235,0.7767906785011292,0.30802905559539795,-0.17699125409126282,-0.3320860266685486
304997.47177490324,0.32052814960479736,0.7911052703857422,1.0774637460708618,0.9133615493774414,0.45022499561309814,-0.027707161381840706,0.17718175053596497,0.6195509433746338
304997.47577490326,0.4042729437351227,0.9618666172027588,1.1002236604690552,0.6208191514015198,-0.05627373605966568,-0.3414265513420105,0.7702629566192627,1.8786423206329346
304997.4797749033,0.4593530595302582,1.0979983806610107,1.244587779045105,0.6976144313812256,-0.07302375137805939,-0.492476224899292,0.7972903251647949,2.1975278854370117
304997.4837749033,0.26880258321762085,0.5042315721511841,0.3112700283527374,-0.06484495103359222,-0.05113936588168144,1.0109734535217285,2.1371419429779053,1.4929273128509521
304997.48777490325,0.3936031758785248,0.6295028924942017,0.19385464489459991,-0.11456349492073059,0.7019010782241821,1.9480037689208984,2.1572532653808594,1.1554924249649048
304997.49177490326,0.48588797450065613,0.6722986102104187,0.0007822338957339525,-0.11987956613302231,1.59602952003479,2.703691244125366,1.6989073753356934,0.558135449886322
304997.4957749033,0.552506685256958,0.7647150754928589,-0.004309467971324921,-0.1669062376022339,1.8205819129943848,3.1996443271636963,1.927972435951233,0.5487938523292542
304997.4997749033,0.29310888051986694,0.23410595953464508,-0.13308337330818176,0.5401678681373596,1.458120346069336,0.48533928394317627,-0.13837771117687225,1.162020206451416
304997.50377490325,0.40827450156211853,0.21557365357875824,-0.10429523140192032,1.1978507041931152,1.5637778043746948,0.19952410459518433,1.6023759841918945,2.0840344429016113
304997.50777490326,0.4821297824382782,0.15234917402267456,-0.01464165560901165,1.8375184535980225,1.3494001626968384,-0.08363282680511475,3.8693268299102783,2.7248423099517822
304997.5117749033,0.5469503402709961,0.16774919629096985,-0.027844462543725967,2.1128623485565186,1.5359162092208862,-0.19583025574684143,4.396942615509033,3.212932586669922
304997.5157749033,0.2706988751888275,-0.06991752237081528,0.3555704951286316,1.083080768585205,-0.014646019786596298,0.8417028188705444,1.6066826581954956,-0.10649079829454422
304997.51977490325,0.363985151052475,-0.13465440273284912,0.7757179737091064,1.1238000392913818,0.0831749215722084,1.8698594570159912,1.222249984741211,0.6840116381645203
304997.52377490327,0.4167880117893219,-0.19087150692939758,1.1896904706954956,0.9320117831230164,0.23898084461688995,2.793389081954956,0.39965319633483887,1.7989997863769531
304997.5277749033,0.47323840856552124,-0.21866045892238617,1.3616986274719238,1.0507891178131104,0.24866707623004913,3.2584333419799805,0.4018097221851349,2.030158519744873
304997.5317749033,0.22880889475345612,-0.06807272136211395,0.9671332240104675,-0.022246701642870903,1.1409920454025269,0.5358114242553711,0.5175200700759888,1.9480527639389038
304997.53577490326,0.3273822069168091,-0.06465842574834824,1.4502731561660767,-0.08906036615371704,1.9799898862838745,0.3113890588283539,1.6008023023605347,2.02701473236084
304997.53977490327,0.3775757849216461,-0.07796243578195572,1.6778864860534668,-0.10492941737174988,2.2783353328704834,0.37684187293052673,1.8218616247177124,2.3467118740081787
304997.5437749033,0.15611641108989716,0.11429236084222794,0.5929184556007385,0.04723121225833893,1.1844873428344727,-0.050708040595054626,1.7512627840042114,-0.41973915696144104
304997.54777490324,0.18914619088172913,0.29297149181365967,0.5827689170837402,0.5408546328544617,1.0275074243545532,0.8281611204147339,1.5179446935653687,1.9213889837265015
304997.55177490326,0.19709664583206177,0.4765869081020355,0.44983744621276855,1.078657865524292,0.5811657309532166,1.8394979238510132,0.833565890789032,4.721107006072998
304997.5557749033,0.22300469875335693,0.5447777509689331,0.5044882297515869,1.2472498416900635,0.647212028503418,2.126878499984741,0.9894338250160217,5.473952770233154
304997.5597749033,0.070957250893116,0.46064385771751404,-0.0955161601305008,1.1570311784744263,-0.14105170965194702,1.6420689821243286,0.025490205734968185,1.416379451751709
304997.56377490325,0.07136745750904083,0.7094195485115051,-0.187236487865448,1.5305570363998413,0.17711122334003448,1.41698157787323,1.3246674537658691,1.0106120109558105
304997.56777490326,0.05862175300717354,0.9016886949539185,-0.2634434998035431,1.68402898311615,0.6526491641998291,0.8748478293418884,2.734271287918091,0.4219983220100403
304997.5717749033,0.06570588797330856,1.0256705284118652,-0.3027864694595337,1.9276314973831177,0.7260680794715881,0.9487225413322449,3.2241601943969727,0.3899122476577759
304997.5757749033,0.0023912591859698296,0.587710976600647,0.07495512068271637,0.3581695854663849,1.46488356590271,-0.1948903203010559,1.2619731426239014,1.733941912651062
304997.57977490325,-0.020156001672148705,0.795885443687439,0.3571363687515259,0.2166932076215744,1.8628612756729126,0.6222110390663147,0.7319406270980835,2.444321870803833
304997.58377490327,-0.04586157575249672,0.9120835065841675,0.6735255122184753,0.010203336365520954,1.9727216958999634,1.6470049619674683,0.05738786980509758,2.6217970848083496
304997.5877749033,-0.05417616665363312,1.040971279144287,0.7699342966079712,-0.0126650370657444,2.253995180130005,1.8707656860351562,-0.09651676565408707,3.04695463180542
304997.5917749033,-0.04389023408293724,0.3977891802787781,0.7875229120254517,0.028189508244395256,0.1735151708126068,1.7797702550888062,0.8748649954795837,-0.04347791150212288
304997.59577490325,-0.06690223515033722,0.44382286071777344,1.178908348083496,0.4183385372161865,-0.07340433448553085,1.5494945049285889,2.1128528118133545,0.9029168486595154
304997.59977490327,-0.08300213515758514,0.41849470138549805,1.4388362169265747,0.8804324269294739,-0.29767608642578125,0.9278327226638794,3.2029008865356445,2.1452736854553223
304997.6037749033,-0.09494967758655548,0.4730076491832733,1.6568849086761475,0.999250054359436,-0.4133400321006775,1.0672003030776978,3.7209455966949463,2.3897149562835693
304997.6077749033,-0.04578161612153053,0.06677419692277908,0.7032122015953064,1.0653846263885498,0.43840694427490234,-0.17524833977222443,0.3123833239078522,2.008300304412842
304997.61177490326,-0.0580977164208889,0.01047557033598423,0.7503759264945984,1.4979950189590454,1.3666908740997314,0.3674944043159485,0.10169477015733719,1.449442744255066
304997.6157749033,-0.062063075602054596,-0.06250577419996262,0.663992166519165,1.7346361875534058,2.3126587867736816,1.128658652305603,0.001418447121977806,0.5011128187179565
304997.6197749033,-0.07074462622404099,-0.07170701771974564,0.7495010495185852,1.9713972806930542,2.674851894378662,1.276938796043396,-0.09082315117120743,0.4491245150566101
304997.6237749033,-0.004368375055491924,-0.1011679470539093,0.012760376557707787,0.5251263976097107,1.116513967514038,1.4943729639053345,1.5428420305252075,1.0599021911621094
304997.62777490326,0.014256381429731846,-0.11229616403579712,-0.10765611380338669,0.2827717065811157,0.9254658818244934,1.6291546821594238,2.050278902053833,2.3061091899871826
304997.6317749033,0.03826664388179779,-0.0984795093536377,-0.24613502621650696,-0.08039704710245132,0.4484561085700989,1.406448245048523,2.2084085941314697,3.325878381729126
304997.6357749033,0.04359617456793785,-0.11671577394008636,-0.27767327427864075,-0.11558590829372406,0.5104395747184753,1.6404377222061157,2.548940658569336,3.875138759613037
304997.6397749033,0.0830039530992508,0.08742275834083557,0.08517260104417801,-0.002248808043077588,-0.1312725692987442,-0.15485207736492157,-0.10578978061676025,0.08543377369642258
304997.64377490326,0.14055177569389343,0.1907503455877304,0.2210599184036255,0.1428057998418808,0.005865883082151413,0.0488293394446373,-0.24523606896400452,0.12939707934856415
304997.6477749033,0.16071973741054535,0.21420134603977203,0.24766848981380463,0.15122628211975098,-0.004029590170830488,0.06365345418453217,-0.4083902835845947,0.07417121529579163
304997.6517749033,0.12867087125778198,0.29306405782699585,0.48235297203063965,0.737949550151825,0.8948909640312195,1.2528679370880127,1.5543841123580933,1.7854945659637451
304997.65577490325,0.21409177780151367,0.5313901305198669,0.8940389156341553,1.368291974067688,1.5637468099594116,2.0902116298675537,2.3773372173309326,2.3458118438720703
304997.65977490327,0.287525475025177,0.7459616661071777,1.2617754936218262,1.9268172979354858,2.1305387020111084,2.6821365356445312,2.7873456478118896,2.444328784942627
304997.6637749033,0.3273639678955078,0.8515936136245728,1.4438835382461548,2.1979331970214844,2.441781759262085,3.162964344024658,3.2934963703155518,2.9136033058166504
304997.6677749033,0.20882606506347656,0.5541771650314331,0.8890045881271362,0.9736637473106384,0.815021276473999,0.264147013425827,-0.18774020671844482,-0.2511177659034729
304997.67177490325,0.3185991048812866,0.8001762628555298,1.075118899345398,0.938887357711792,0.3924567401409149,-0.014512821100652218,0.1849696785211563,1.7223495244979858
304997.67577490327,0.4033769965171814,0.9754016995429993,1.1116008758544922,0.6940733790397644,-0.21515530347824097,-0.26116105914115906,0.7618432641029358,4.3837432861328125
304997.6797749033,0.458590030670166,1.1123511791229248,1.2666966915130615,0.7761428356170654,-0.29340827465057373,-0.36448490619659424,0.7730259895324707,4.957400321960449
304997.6837749033,0.2729932367801666,0.5258635878562927,0.3073592782020569,-0.2045651376247406,0.07438650727272034,0.9755502939224243,2.639723777770996,1.5242937803268433
304997.68777490326,0.3944525420665741,0.6584911346435547,0.1989341676235199,-0.15515270829200745,0.7590699791908264,1.9236044883728027,3.2081050872802734,1.1889212131500244
304997.6917749033,0.4814763367176056,0.7027050852775574,0.024038763716816902,-0.010762129910290241,1.5597137212753296,2.7483837604522705,2.959408760070801,0.6004695296287537
304997.6957749033,0.5461567640304565,0.7984579801559448,0.014056955464184284,-0.0182937141507864,1.7813688516616821,3.190789222717285,3.5221941471099854,0.5932838916778564
304997.6997749033,0.29575639963150024,0.23775377869606018,-0.1054515540599823,0.5312928557395935,1.487128734588623,0.5376489758491516,-0.01108255609869957,1.3734500408172607
304997.70377490326,0.411045640707016,0.2102435976266861,-0.058971796184778214,1.1458905935287476,1.6187081336975098,0.2847904860973358,0.8087798953056335,2.3130249977111816
304997.7077749033,0.4847554564476013,0.13233675062656403,0.03266294673085213,1.7450511455535889,1.4135934114456177,0.0021268492564558983,1.842225432395935,2.888608455657959
304997.7117749033,0.5505151152610779,0.14734728634357452,0.037659551948308945,1.9910117387771606,1.6204700469970703,-0.08511080592870712,2.09816312789917,3.3384993076324463
304997.7157749033,0.27517786622047424,-0.046283427625894547,0.3712902367115021,1.0285130739212036,-0.29853546619415283,0.7805395722389221,1.6287939548492432,0.015554669313132763
304997.71977490326,0.36792436242103577,-0.11310992389917374,0.7606989145278931,1.097703218460083,-0.22596925497055054,1.6518651247024536,1.2919340133666992,0.5371636152267456
304997.7237749033,0.4210638403892517,-0.17439785599708557,1.1258571147918701,0.9456648230552673,-0.004037196282297373,2.4006600379943848,0.5565749406814575,1.3486659526824951
304997.7277749033,0.4778493046760559,-0.20330455899238586,1.2924541234970093,1.0678324699401855,-0.021171873435378075,2.773477554321289,0.5704516768455505,1.4751286506652832
304997.7317749033,0.21146699786186218,-0.06989545375108719,0.8271353840827942,-0.06332588195800781,0.9590617418289185,0.8103181719779968,0.24931596219539642,2.373741865158081
304997.73577490327,0.2734627425670624,-0.016507547348737717,1.1217337846755981,-0.12805108726024628,1.7498081922531128,0.470890611410141,1.5170978307724,1.6941866874694824
304997.7397749033,0.30339935421943665,0.06587564945220947,1.2858529090881348,-0.17813722789287567,2.43776798248291,0.04912364110350609,2.820251226425171,0.5000110268592834
304997.7437749033,0.3443577289581299,0.07471074908971786,1.4689669609069824,-0.21059706807136536,2.805062770843506,-0.04713360592722893,3.344653367996216,0.5019210577011108
304997.7477749033,0.1370198279619217,0.2661362290382385,0.38197940587997437,0.5423614978790283,0.6637586355209351,1.0125436782836914,0.8470795750617981,1.3431743383407593
304997.75177490327,0.18957054615020752,0.46464526653289795,0.41020750999450684,1.0464575290679932,0.6259502172470093,2.114786148071289,0.5826147794723511,2.893791675567627
304997.7557749033,0.21895261108875275,0.5324335098266602,0.48062002658843994,1.199399709701538,0.7202882766723633,2.3955507278442383,0.6720905900001526,3.334181308746338
304997.7597749033,0.07020620256662369,0.44012972712516785,-0.03261398524045944,1.124392032623291,-0.13551124930381775,1.7092833518981934,-0.08231905847787857,1.4160650968551636
304997.76377490326,0.06945621967315674,0.7082802057266235,-0.09231031686067581,1.4612926244735718,0.24276475608348846,1.4315032958984375,1.1581472158432007,0.6549745798110962
304997.7677749033,0.05583074316382408,0.9322535395622253,-0.14331844449043274,1.593187689781189,0.7349687814712524,0.730833888053894,2.4869225025177,-0.3410888910293579
304997.7717749033,0.06232922896742821,1.0564032793045044,-0.17527556419372559,1.8420077562332153,0.8266626000404358,0.8165600895881653,2.938748359680176,-0.5259688496589661
304997.7757749033,-0.00443570502102375,0.5827887058258057,0.08516490459442139,0.327480673789978,1.3498317003250122,-0.29698410630226135,1.2267568111419678,1.7701678276062012
304997.77977490326,-0.023442436009645462,0.7972055673599243,0.36120933294296265,0.08770328015089035,1.7510857582092285,0.4686064124107361,0.7489240169525146,2.5546295642852783
304997.7837749033,-0.04202885180711746,0.9162333011627197,0.6627998948097229,-0.22758296132087708,1.8999155759811401,1.4141685962677002,0.07850462943315506,2.796121835708618
304997.7877749033,-0.049961939454078674,1.0468498468399048,0.7587226033210754,-0.2773693799972534,2.178769826889038,1.635463833808899,-0.009691702201962471,3.2929530143737793
304997.7917749033,-0.04769262671470642,0.4154864251613617,0.7473617196083069,0.017084602266550064,0.18757840991020203,1.7700446844100952,0.8079254627227783,-0.6447082757949829
304997.79577490326,-0.06564117968082428,0.45431581139564514,1.1858515739440918,0.4100293219089508,-0.1728820651769638,1.6087150573730469,2.0402727127075195,1.3274909257888794
304997.7997749033,-0.07590863853693008,0.4184344410896301,1.522842526435852,0.8866482973098755,-0.5319883823394775,1.0701106786727905,3.16359806060791,4.109926700592041
304997.8037749033,-0.08584252744913101,0.4715431332588196,1.7359013557434082,1.006282925605774,-0.6629451513290405,1.206896424293518,3.7321789264678955,4.607503890991211
304997.8077749033,-0.03891409933567047,0.07890738546848297,0.6898736357688904,1.0818710327148438,0.4847218990325928,-0.2830788791179657,0.3651525676250458,1.7148451805114746
304997.81177490327,-0.04939676448702812,0.01776953414082527,0.7315194010734558,1.5108224153518677,1.3034019470214844,0.32238733768463135,0.1376628428697586,1.0646381378173828
304997.8157749033,-0.05352048575878143,-0.06388521194458008,0.6395846605300903,1.7477686405181885,2.1383321285247803,1.147796869277954,-0.016477549448609352,0.032830286771059036
304997.8197749033,-0.061449695378541946,-0.07444527000188828,0.7237244248390198,1.982661247253418,2.4582791328430176,1.2867867946624756,-0.12246377021074295,-0.06749847531318665
304997.8237749033,-0.003880379255861044,-0.08335040509700775,0.05278687924146652,0.5223373174667358,1.190983533859253,1.6477854251861572,2.3436529636383057,1.0534847974777222
304997.8277749033,0.017779119312763214,-0.11800987273454666,-0.06856147944927216,0.31574204564094543,1.017342448234558,1.7156928777694702,3.807297468185425,2.31067156791687
304997.8317749033,0.04366369917988777,-0.13655491173267365,-0.2039874792098999,0.010607928968966007,0.6029797196388245,1.4058279991149902,4.590115547180176,3.308619737625122
304997.8357749033,0.04902615398168564,-0.15886186063289642,-0.24644431471824646,-0.031535908579826355,0.6563993692398071,1.6116429567337036,5.485079765319824,3.932429790496826
304997.8397749033,0.06560845673084259,0.04076148942112923,-0.06584365665912628,-0.09478370100259781,-0.26358890533447266,-0.4581267833709717,-0.09568525850772858,-0.17065146565437317
304997.8437749033,0.12377011030912399,0.17997288703918457,0.16552866995334625,0.20327885448932648,0.15678510069847107,0.019092809408903122,0.2908322215080261,0.18979188799858093
304997.8477749033,0.17799891531467438,0.3309851586818695,0.4498956501483917,0.602401077747345,0.7248939275741577,0.7439116835594177,0.9680020213127136,0.919654130935669
304997.8517749033,0.20289292931556702,0.3776567876338959,0.5167130827903748,0.6878841519355774,0.8089844584465027,0.8334601521492004,1.047739028930664,0.9809379577636719
304997.8557749033,0.17739275097846985,0.44208770990371704,0.7918199300765991,1.174865484237671,1.3861943483352661,1.7675174474716187,1.9505850076675415,2.213531970977783
304997.8597749033,0.2847195267677307,0.7141700983047485,1.2909986972808838,1.8540310859680176,2.1112618446350098,2.635256767272949,2.521085023880005,2.5505292415618896
304997.8637749033,0.3269369602203369,0.8206360936164856,1.4850590229034424,2.1333651542663574,2.4565165042877197,3.113867998123169,2.961733818054199,3.011180877685547
304997.8677749033,0.21028682589530945,0.5585941672325134,0.8455495834350586,0.917154848575592,0.7011083960533142,0.32928499579429626,-0.3882441222667694,-0.2558882236480713
304997.87177490327,0.3230057954788208,0.820832371711731,1.0469253063201904,0.8886064291000366,0.47183260321617126,0.014913738705217838,-0.03179182484745979,0.888728141784668
304997.8757749033,0.41273489594459534,1.0069423913955688,1.1020190715789795,0.6469761729240417,0.1144324243068695,-0.3082082271575928,0.6432874202728271,2.45624041557312
304997.8797749033,0.4699348509311676,1.1441036462783813,1.2515885829925537,0.7305873036384583,0.08741551637649536,-0.441942423582077,0.66466224193573,2.7836103439331055
304997.8837749033,0.270106703042984,0.5197054743766785,0.30651506781578064,-0.23133638501167297,0.08336179703474045,1.0387544631958008,1.8968591690063477,1.7526479959487915
304997.88777490327,0.3921510577201843,0.6472085118293762,0.1825699508190155,-0.20221872627735138,0.6939476728439331,1.966281533241272,1.902703881263733,1.3005077838897705
304997.8917749033,0.4785352349281311,0.6919733881950378,-0.01574987918138504,-0.09974166005849838,1.3741071224212646,2.7102415561676025,1.4329279661178589,0.60938560962677
304997.8957749033,0.5432795286178589,0.785254180431366,-0.02512625977396965,-0.12248250097036362,1.582655906677246,3.1747632026672363,1.683813214302063,0.5560783743858337
304997.8997749033,0.2944066524505615,0.23412935435771942,-0.09900155663490295,0.5531104207038879,1.3672348260879517,0.648439347743988,-0.36913204193115234,1.4761087894439697
304997.9037749033,0.4129678010940552,0.21329368650913239,-0.05885172635316849,1.172463297843933,1.4828299283981323,0.3456422686576843,0.6214883327484131,2.61313533782959
304997.9077749033,0.49187755584716797,0.14850951731204987,0.028249315917491913,1.7514339685440063,1.30330491065979,-0.07253504544496536,1.7959305047988892,3.2858920097351074
304997.9117749033,0.5590916275978088,0.16234122216701508,0.012947740033268929,2.011824131011963,1.4901516437530518,-0.12061808258295059,2.079920768737793,3.922691822052002
304997.9157749033,0.27265429496765137,-0.039079416543245316,0.3714449107646942,1.1091190576553345,-0.1076802909374237,0.8373139500617981,1.9207385778427124,-0.3353216350078583
304997.9197749033,0.3667142689228058,-0.11028178781270981,0.7580260038375854,1.1452018022537231,-0.09028846025466919,1.9021695852279663,1.363698959350586,1.0228381156921387
304997.9237749033,0.4208526611328125,-0.17439939081668854,1.1170225143432617,0.9611064195632935,0.039500441402196884,2.842257261276245,0.3627152740955353,2.9932303428649902
304997.9277749033,0.47697678208351135,-0.203632652759552,1.2848410606384277,1.0825963020324707,0.02630869671702385,3.328439950942993,0.38544413447380066,3.2555606365203857
304997.9317749033,0.2136235386133194,-0.0553482286632061,0.8840024471282959,-0.005437115207314491,0.9736814498901367,0.7105467915534973,0.3044617772102356,1.9820789098739624
304997.9357749033,0.2759813964366913,-0.0029046647250652313,1.1226608753204346,-0.154302716255188,1.7246766090393066,0.38424327969551086,1.467084288597107,1.5714951753616333
304997.9397749033,0.30565741658210754,0.07636673003435135,1.2283731698989868,-0.29197782278060913,2.334036111831665,-0.011800437234342098,2.666132688522339,0.7025668025016785
304997.9437749033,0.3466949462890625,0.08907733112573624,1.40032160282135,-0.3674865663051605,2.6711301803588867,-0.0953558012843132,3.134592294692993,0.6776733994483948
304997.9477749033,0.1343374401330948,0.20454087853431702,0.4280572533607483,0.3738687038421631,0.778730034828186,0.6473529934883118,1.0743528604507446,0.5185743570327759
304997.9517749033,0.1588098108768463,0.41232648491859436,0.3498208522796631,1.0216044187545776,0.4595094919204712,1.5565205812454224,0.5148724913597107,1.9336103200912476
304997.9557749033,0.16126291453838348,0.6107285022735596,0.18022653460502625,1.6869845390319824,-0.0032758135348558426,2.4150137901306152,-0.24367275834083557,3.2890427112579346
304997.9597749033,0.1821921020746231,0.6976690888404846,0.19897305965423584,1.9343838691711426,-0.05293608084321022,2.787949800491333,-0.37797021865844727,3.8510875701904297
304997.9637749033,0.05007525533437729,0.4962179362773895,-0.09552870690822601,1.1122362613677979,0.04075615480542183,1.009680151939392,1.8358404636383057,0.03555638715624809
304997.9677749033,0.04397037997841835,0.757179319858551,-0.11023696511983871,1.2431833744049072,0.7471904754638672,0.6710071563720703,4.1876068115234375,0.2553897798061371
304997.9717749033,0.026809128001332283,0.9571781158447266,-0.10363703221082687,1.1591054201126099,1.594959020614624,0.15331193804740906,6.1455159187316895,0.7898492813110352
304997.9757749033,0.030436430126428604,1.09458589553833,-0.1176411360502243,1.3178443908691406,1.8189373016357422,0.11098764836788177,7.159827709197998,0.8519341945648193
304997.97977490333,-0.023893168196082115,0.6109945774078369,0.35502299666404724,0.008255460299551487,1.3402663469314575,0.671337366104126,0.11814598739147186,2.030371904373169
304997.9837749033,-0.04606064036488533,0.8739026188850403,0.6744805574417114,-0.0755152702331543,1.8237751722335815,1.6786428689956665,-0.2634308636188507,2.6727473735809326
304997.9877749033,-0.05165189877152443,1.006280779838562,0.7695963978767395,-0.08073636889457703,2.123654842376709,1.8951705694198608,-0.3334841728210449,3.1928915977478027
304997.9917749033,-0.042662471532821655,0.4038902223110199,0.7264156937599182,-0.009168344549834728,0.2972024977207184,1.685422658920288,0.8150545954704285,-0.3969515562057495
304997.9957749033,-0.06560654938220978,0.44592607021331787,1.0924038887023926,0.3980157971382141,0.040367379784584045,1.6057623624801636,1.7797497510910034,0.47564977407455444
304997.9997749033,-0.08262085169553757,0.41547930240631104,1.3636720180511475,0.8758851885795593,-0.26541268825531006,1.123550534248352,2.5820140838623047,1.6425951719284058
304998.0037749033,-0.09366628527641296,0.4688400626182556,1.5610334873199463,0.995769202709198,-0.3588370680809021,1.272693395614624,3.041753053665161,1.8910715579986572
304998.0077749033,-0.040609151124954224,0.06255381554365158,0.6768094301223755,1.1479016542434692,0.48557865619659424,-0.20818716287612915,0.47231292724609375,1.6681832075119019
304998.0117749033,-0.05128474161028862,0.02272445522248745,0.7320441603660583,1.593381404876709,1.248094916343689,0.30779197812080383,0.292189359664917,1.2099635601043701
304998.0157749033,-0.0552765354514122,-0.0316888652741909,0.6544405221939087,1.834585189819336,2.008566379547119,1.059311866760254,0.11121946573257446,0.3801312744617462
304998.0197749033,-0.06367325782775879,-0.03807812184095383,0.7425032258033752,2.0957467555999756,2.3123326301574707,1.1888868808746338,0.05854553356766701,0.3577398359775543
304998.0237749033,-0.005063386633992195,-0.10937121510505676,-0.02417142316699028,0.5037652850151062,1.2652862071990967,1.8203431367874146,1.6315993070602417,0.9406415820121765
304998.0277749033,0.015165678225457668,-0.12375050783157349,-0.1179099753499031,0.29845118522644043,1.0617625713348389,1.967297077178955,2.1708874702453613,2.1411571502685547
304998.0317749033,0.03926846757531166,-0.10601342469453812,-0.2054024338722229,-0.025303449481725693,0.5843793749809265,1.663160800933838,2.320155143737793,3.104639768600464
304998.0357749033,0.044917430728673935,-0.1284671574831009,-0.23785166442394257,-0.038631290197372437,0.6449834704399109,1.9003887176513672,2.69003963470459,3.613194465637207
304998.0397749033,0.06407810747623444,0.03974272310733795,-0.008788205683231354,-0.17338436841964722,-0.23817391693592072,-0.2639863193035126,-0.2111421823501587,-0.13780876994132996
304998.0437749033,0.1231897845864296,0.17762009799480438,0.20767386257648468,0.1438634693622589,0.19168369472026825,0.18098334968090057,0.11399301141500473,0.7018856406211853
304998.0477749033,0.1782894730567932,0.3311738967895508,0.4682111144065857,0.5552183389663696,0.7480467557907104,0.8398250341415405,0.7576707601547241,2.0368831157684326
304998.0517749033,0.20340506732463837,0.37980422377586365,0.5313761830329895,0.6303097009658813,0.8285804390907288,0.9122632145881653,0.7790939211845398,2.116990804672241
304998.05577490333,0.14993634819984436,0.37260276079177856,0.6927434206008911,0.9474692940711975,1.3595736026763916,1.8504868745803833,1.7858421802520752,2.207740306854248
304998.0597749033,0.24275921285152435,0.6238628625869751,1.1138516664505005,1.5145403146743774,1.864668607711792,2.099503993988037,1.7964481115341187,1.8432551622390747
304998.0637749033,0.320842981338501,0.8356044888496399,1.443263292312622,1.9274855852127075,2.0860936641693115,1.912307620048523,1.3208415508270264,0.9590153098106384
304998.0677749033,0.364694744348526,0.9556761980056763,1.6532918214797974,2.235374927520752,2.4011385440826416,2.209754228591919,1.5169342756271362,1.0350831747055054
304998.07177490334,0.2243141382932663,0.5985206365585327,0.78925621509552,0.6915560960769653,0.1882183700799942,-0.15298113226890564,0.09997625648975372,0.5238716006278992
304998.0757749033,0.34096527099609375,0.8127143383026123,0.9182696342468262,0.5066003203392029,-0.07675811648368835,0.12074731290340424,1.0544300079345703,1.9405601024627686
304998.0797749033,0.43214869499206543,0.9343865513801575,0.8918130993843079,0.1634659767150879,-0.324756383895874,0.5770019888877869,2.2164218425750732,3.2535929679870605
304998.0837749033,0.4915620982646942,1.0628353357315063,1.0167161226272583,0.17877726256847382,-0.4138605296611786,0.6340069770812988,2.5228071212768555,3.9260709285736084
304998.08777490334,0.2759987711906433,0.48850247263908386,0.10712581127882004,-0.1866816133260727,0.4290202856063843,1.703252911567688,1.6376125812530518,0.46878138184547424
304998.0917749033,0.4040566384792328,0.56658536195755,-0.060398686677217484,0.01915230229496956,1.323965072631836,2.1152024269104004,1.1557109355926514,0.32493236660957336
304998.0957749033,0.4964362382888794,0.5626499652862549,-0.2583920359611511,0.33238133788108826,2.252021312713623,2.138418436050415,0.2227688580751419,0.3310759365558624
304998.0997749033,0.5649374127388,0.6353034973144531,-0.3069175183773041,0.3790820837020874,2.581531047821045,2.4644715785980225,0.23867185413837433,0.2047894299030304
304998.10377490334,0.31438836455345154,0.12039392441511154,-0.011086980812251568,1.0062724351882935,1.048129916191101,-0.20108279585838318,1.7328554391860962,2.197188138961792
304998.1077749033,0.47142237424850464,0.11533714085817337,0.04098200425505638,1.7204627990722656,1.3091955184936523,-0.41457703709602356,4.120702743530273,2.9880292415618896
304998.1117749033,0.5440386533737183,0.13598565757274628,0.04753052815794945,1.9618977308273315,1.5459556579589844,-0.47864940762519836,4.61798620223999,3.4608638286590576
304998.11577490333,0.2766002416610718,-0.04243611544370651,0.36259716749191284,1.0012050867080688,0.0029219472780823708,0.7619509696960449,3.300227642059326,-0.42442065477371216
304998.1197749033,0.36813467741012573,-0.1096573993563652,0.7709733247756958,1.0445444583892822,0.025255709886550903,1.7543530464172363,2.1271796226501465,0.3985808789730072
304998.1237749033,0.41993483901023865,-0.1721273511648178,1.171525001525879,0.8856678605079651,0.09524201601743698,2.626558542251587,0.4792194366455078,1.6829655170440674
304998.1277749033,0.4763583540916443,-0.19562454521656036,1.3298715353012085,1.0039314031600952,0.08076915144920349,3.0761518478393555,0.35390275716781616,1.8473488092422485
304998.13177490333,0.2121865451335907,-0.06536922603845596,0.8929644823074341,-0.035448670387268066,0.9805930256843567,0.8532851338386536,0.06385032832622528,1.8098444938659668
304998.1357749033,0.2737668752670288,-0.005560605321079493,1.1700258255004883,-0.11737735569477081,1.7275201082229614,0.39581775665283203,1.2563748359680176,1.2667901515960693
304998.1397749033,0.3029598295688629,0.07721047848463058,1.2881770133972168,-0.166909858584404,2.29829740524292,-0.18663805723190308,2.4725143909454346,0.23213082551956177
304998.1437749033,0.3438108563423157,0.08685275167226791,1.4674487113952637,-0.192994624376297,2.693209648132324,-0.3157203197479248,2.927638530731201,0.2478751242160797
304998.14777490334,0.13441599905490875,0.20731452107429504,0.42138734459877014,0.40803062915802,0.7498342394828796,0.48000726103782654,0.9433830380439758,0.5984604358673096
304998.1517749033,0.158574640750885,0.41660967469215393,0.34120503067970276,0.9534104466438293,0.36591824889183044,1.5655239820480347,0.35517922043800354,2.1744706630706787
304998.1557749033,0.16052104532718658,0.6157577633857727,0.16863922774791718,1.4803342819213867,-0.18201375007629395,2.603998899459839,-0.41624870896339417,3.67276668548584
304998.1597749033,0.18146264553070068,0.7037880420684814,0.1838964968919754,1.7072113752365112,-0.26031631231307983,3.069256067276001,-0.5452209711074829,4.386704921722412
304998.16377490334,0.049343619495630264,0.5300639867782593,-0.09104301035404205,1.2208969593048096,0.03332630172371864,1.016147255897522,1.0344338417053223,-0.1317620873451233
304998.1677749033,0.04294738546013832,0.7897838950157166,-0.11275291442871094,1.3193328380584717,0.6827836036682129,0.5809924006462097,2.0710463523864746,0.33093732595443726
304998.1717749033,0.02711658738553524,0.979949951171875,-0.10193534195423126,1.1773953437805176,1.4187686443328857,-0.09481081366539001,2.85359263420105,1.3719755411148071
304998.1757749033,0.029379641637206078,1.116141438484192,-0.12293247878551483,1.324438452720642,1.6285669803619385,-0.142335906624794,3.4090263843536377,1.404409408569336
304998.17977490334,-0.013906081207096577,0.5508249402046204,0.23594439029693604,0.008843468502163887,1.443228840827942,0.40246155858039856,0.24774745106697083,1.9662054777145386
304998.1837749033,-0.036419786512851715,0.719113290309906,0.6159696578979492,-0.16504965722560883,1.5109450817108154,1.4600030183792114,0.2555781304836273,1.7877238988876343
304998.1877749033,-0.05784917250275612,0.8078315854072571,1.0095875263214111,-0.32403066754341125,1.2819862365722656,2.5794599056243896,0.36831215023994446,0.9882208108901978
304998.19177490333,-0.06580384075641632,0.9160824418067932,1.1534981727600098,-0.3794502019882202,1.4651556015014648,2.988532304763794,0.3819679021835327,1.166709065437317
304998.19577490335,-0.0470220111310482,0.32592660188674927,0.8797308802604675,0.21004624664783478,-0.05196917802095413,1.3349277973175049,1.745736837387085,-0.06587337702512741
304998.1997749033,-0.06931319832801819,0.3343968391418457,1.1915773153305054,0.7560771703720093,-0.034474972635507584,0.8566049337387085,2.141183376312256,1.2387067079544067
304998.2037749033,-0.08429741114377975,0.2843438982963562,1.357944130897522,1.3302313089370728,0.08520253747701645,0.06737597286701202,2.151397705078125,2.590104579925537
304998.20777490333,-0.0976124033331871,0.3182697296142578,1.5504987239837646,1.5358511209487915,0.04322536662220955,0.04740205779671669,2.5077643394470215,3.0709104537963867
304998.21177490335,-0.03917313367128372,-0.019840057939291,0.5205670595169067,1.2228388786315918,1.2200970649719238,0.5156581997871399,0.014217952266335487,0.5443249344825745
304998.2157749033,-0.050895221531391144,-0.0740111917257309,0.6383808255195618,1.7715041637420654,2.1805434226989746,1.3011975288391113,0.16260653734207153,0.15632660686969757
304998.2197749033,-0.05888145789504051,-0.08819187432527542,0.7404364347457886,2.0327861309051514,2.4861714839935303,1.4346097707748413,0.15902762115001678,0.15839068591594696
304998.22377490334,-0.004277232103049755,-0.1391286998987198,-0.023404104635119438,0.596479594707489,1.4695583581924438,2.110321521759033,2.455738067626953,1.5475337505340576
304998.2277749033,-0.00616923114284873,-0.15012110769748688,-0.010873094201087952,0.7050637602806091,1.672239065170288,2.3732571601867676,2.671503782272339,1.612270712852478
304998.2317749033,0.03789066895842552,-0.053768936544656754,-0.1256760209798813,-0.0837089866399765,0.18977738916873932,0.5823357105255127,1.1763591766357422,1.6364425420761108
304998.23577490327,0.07022973150014877,-0.03822855278849602,-0.17541038990020752,-0.1427002102136612,0.07815512269735336,0.3510608673095703,0.8919769525527954,1.7598294019699097
304998.2397749033,0.07993069291114807,-0.04356556013226509,-0.22035819292068481,-0.1743023544549942,0.07786688953638077,0.3977707624435425,1.0785020589828491,2.1219677925109863
304998.2437749033,0.10609811544418335,0.16857342422008514,0.2056792676448822,0.20618855953216553,0.15073639154434204,0.1480162888765335,0.777215301990509,0.15887704491615295
304998.24777490326,0.1757909506559372,0.3234914243221283,0.4572838246822357,0.5795655846595764,0.6480684280395508,0.7250461578369141,2.252389430999756,0.947723388671875
304998.25177490327,0.20131812989711761,0.36910104751586914,0.5195419788360596,0.6536011695861816,0.7154555320739746,0.7936809062957764,2.451091766357422,0.9975929856300354
304998.2557749033,0.1495245397090912,0.3762874901294708,0.6433509588241577,1.0855776071548462,1.236295223236084,1.6653666496276855,3.3401150703430176,2.438194513320923
304998.25977490324,0.24241408705711365,0.6326145529747009,1.043788194656372,1.5864804983139038,1.7612770795822144,1.9407086372375488,2.762932777404785,1.9512170553207397
304998.26377490326,0.3205271065235138,0.8520846366882324,1.367421269416809,1.8951250314712524,2.0607635974884033,1.8663699626922607,1.6424483060836792,0.7709906101226807
304998.2677749033,0.3648383319377899,0.974357008934021,1.5578638315200806,2.182772397994995,2.380260944366455,2.181669235229492,1.7472388744354248,0.8534889221191406
304998.2717749033,0.22811561822891235,0.5619091987609863,0.828435480594635,0.6544016003608704,0.2620260715484619,-0.38663652539253235,-0.44913962483406067,0.2904089093208313
304998.27577490325,0.34657686948776245,0.7922425866127014,0.9318110942840576,0.4743580222129822,-0.01539540383964777,-0.07471495121717453,0.6727520227432251,1.6638938188552856
304998.27977490326,0.43743064999580383,0.939428448677063,0.8796071410179138,0.1584176868200302,-0.32567301392555237,0.4811682403087616,2.1417088508605957,2.9599599838256836
304998.2837749033,0.4985063374042511,1.0761075019836426,0.9945888519287109,0.14928682148456573,-0.4193732440471649,0.5400075316429138,2.4515368938446045,3.556471586227417
304998.2877749033,0.27890482544898987,0.4850060045719147,0.1342906504869461,-0.21873709559440613,0.4436967074871063,1.749848484992981,1.8236777782440186,0.1547536551952362
304998.29177490325,0.4039788544178009,0.5639597773551941,0.045605696737766266,0.033517543226480484,1.2071154117584229,2.2260639667510986,1.139727234840393,0.17521487176418304
304998.29577490326,0.49292466044425964,0.5602046847343445,-0.08075910061597824,0.37111467123031616,1.9557106494903564,2.2673888206481934,0.029062818735837936,0.6281290054321289
304998.2997749033,0.5609060525894165,0.631857693195343,-0.09644240140914917,0.4193249046802521,2.2480926513671875,2.6410038471221924,-0.04843463376164436,0.46678560972213745
304998.3037749033,0.28513404726982117,0.15469105541706085,-0.08085711300373077,0.8448126912117004,1.10423743724823,-0.14417870342731476,0.2687471807003021,2.124636650085449
304998.30777490325,0.40004390478134155,0.11274011433124542,0.0695347785949707,1.444335699081421,0.9965435266494751,-0.04105837643146515,1.520348310470581,2.121332883834839
304998.31177490327,0.47683805227279663,0.03954512998461723,0.2715069055557251,1.9459495544433594,0.6316404342651367,0.198936328291893,2.8192460536956787,1.6037061214447021
304998.3157749033,0.5423507690429688,0.03879145532846451,0.30509695410728455,2.2340011596679688,0.7028394937515259,0.15300127863883972,3.281883478164673,1.8729814291000366
304998.3197749033,0.2627215087413788,-0.06993188709020615,0.5456072688102722,0.8468296527862549,-0.32343289256095886,1.3268046379089355,0.9863210320472717,-0.26421019434928894
304998.32377490326,0.3491629958152771,-0.11606897413730621,0.9743104577064514,0.7095166444778442,0.14136691391468048,1.8646657466888428,0.5384215712547302,1.422987461090088
304998.3277749033,0.39876890182495117,-0.15152493119239807,1.34828519821167,0.38206756114959717,0.7670522928237915,2.1365320682525635,-0.09792203456163406,3.363673686981201
304998.3317749033,0.4532816708087921,-0.17603503167629242,1.5503166913986206,0.42562657594680786,0.880484402179718,2.459716320037842,-0.15298959612846375,3.894833564758301
304998.3357749033,0.20614826679229736,0.023595331236720085,0.9126878976821899,-0.23373882472515106,1.3234963417053223,0.012870462611317635,1.5087591409683228,0.7669777274131775
304998.33977490326,0.2956097722053528,0.08260101079940796,1.2845845222473145,-0.300693541765213,2.050731897354126,-0.29301413893699646,2.68881893157959,0.22080029547214508
304998.3437749033,0.34100964665412903,0.09231702983379364,1.4897288084030151,-0.3727981448173523,2.38344669342041,-0.3511129319667816,3.1752657890319824,0.30844077467918396
304998.3477749033,0.13418200612068176,0.2068159580230713,0.43776634335517883,0.3703073263168335,0.7985572814941406,0.5491139888763428,1.0283833742141724,0.6421871185302734
304998.35177490325,0.15891775488853455,0.42038899660110474,0.3481993079185486,1.0095196962356567,0.45169833302497864,1.5229188203811646,0.40897178649902344,2.0470800399780273
304998.35577490326,0.16153119504451752,0.6260673999786377,0.167809396982193,1.6643431186676025,-0.03921390324831009,2.4655420780181885,-0.39746788144111633,3.346733570098877
304998.3597749033,0.18268676102161407,0.7148864269256592,0.17918403446674347,1.9105981588363647,-0.11821864545345306,2.876857042312622,-0.5986987948417664,3.96303129196167
304998.3637749033,0.051085732877254486,0.4942752718925476,-0.10307144373655319,1.0866025686264038,-0.02631075121462345,1.065205693244934,0.961661159992218,0.046547405421733856
304998.36777490325,0.046841710805892944,0.7572176456451416,-0.10576993227005005,1.2372959852218628,0.7175915837287903,0.6044120788574219,2.0829110145568848,0.14605136215686798
304998.37177490327,0.032701753079891205,0.9596672654151917,-0.07486055791378021,1.1590520143508911,1.5988621711730957,-0.05215299874544144,3.0575101375579834,0.5976099967956543
304998.3757749033,0.03563982620835304,1.0987776517868042,-0.08423352241516113,1.3131200075149536,1.8219212293624878,-0.14440859854221344,3.566208600997925,0.5544637441635132
304998.3797749033,-0.017515303567051888,0.5721654891967773,0.22144737839698792,0.07512006908655167,1.4023879766464233,0.3538914620876312,0.08613057434558868,2.43925142288208
304998.38377490325,-0.03513869270682335,0.7345820069313049,0.6000791192054749,-0.037196479737758636,1.4997071027755737,1.3522958755493164,-0.028007619082927704,2.047006845474243
304998.38777490327,-0.05280807614326477,0.811926007270813,0.9870595335960388,-0.16346146166324615,1.2960652112960815,2.4437026977539062,0.13762883841991425,1.0580977201461792
304998.3917749033,-0.0599559061229229,0.9207544326782227,1.1328076124191284,-0.20005549490451813,1.4834966659545898,2.781339645385742,-0.019977662712335587,1.2016022205352783
304998.3957749033,-0.04861808568239212,0.3184363543987274,0.8646125197410583,0.20026390254497528,-0.08753420412540436,1.1673214435577393,2.847337245941162,0.2731999456882477
304998.39977490326,-0.06786597520112991,0.3235322833061218,1.1937057971954346,0.7607505917549133,-0.031711310148239136,0.7381042838096619,2.9530694484710693,1.823783040046692
304998.4037749033,-0.08158102631568909,0.2661202549934387,1.3987805843353271,1.3669283390045166,0.102772057056427,0.01131605263799429,2.5048108100891113,3.5600876808166504
304998.4077749033,-0.09233700484037399,0.30044227838516235,1.5913063287734985,1.5593693256378174,0.1058163270354271,-0.019634749740362167,2.8700056076049805,4.11807107925415
304998.4117749033,-0.04042499139904976,0.007711330428719521,0.5315829515457153,1.1893422603607178,0.981814980506897,0.09998001158237457,-0.2055550366640091,0.7279196977615356
304998.41577490326,-0.04014955833554268,-0.052841611206531525,0.5121468305587769,1.4364441633224487,1.7022844552993774,0.9953292012214661,0.2831789255142212,0.3656924366950989
304998.4197749033,-0.03141706809401512,-0.11452960968017578,0.38602983951568604,1.4684392213821411,2.270893096923828,1.9581220149993896,1.1107040643692017,0.13673162460327148
304998.4237749033,-0.03671831265091896,-0.13525988161563873,0.43151625990867615,1.6862120628356934,2.636840343475342,2.2884528636932373,1.2404060363769531,-0.1245003417134285
304998.4277749033,0.010237633250653744,-0.07914212346076965,-0.08976287394762039,0.1806012988090515,0.7298179268836975,1.547074317932129,2.001617431640625,2.1634528636932373
304998.43177490326,0.04072802513837814,-0.05869830772280693,-0.1389009803533554,0.036994848400354385,0.3838309049606323,1.1365864276885986,1.7561737298965454,2.3283140659332275
304998.4357749033,0.07450348883867264,-0.021376952528953552,-0.17345136404037476,-0.14735399186611176,-0.14764724671840668,0.33654868602752686,1.0394974946975708,1.8559249639511108
304998.4397749033,0.08560464531183243,-0.024503713473677635,-0.19971242547035217,-0.17539051175117493,-0.1864442527294159,0.3698142468929291,1.1807717084884644,2.1852328777313232
304998.4437749033,0.10561629384756088,0.18219909071922302,0.2240167111158371,0.21027548611164093,0.23956942558288574,0.1594819873571396,0.2679576575756073,0.3886657953262329
304998.44777490327,0.17561399936676025,0.33341965079307556,0.4781721830368042,0.555865466594696,0.733776867389679,0.8275413513183594,0.8628535270690918,1.0923844575881958
304998.4517749033,0.20124505460262299,0.3789565861225128,0.5421289801597595,0.6207035183906555,0.831204891204834,0.9388763308525085,0.897849977016449,1.1159977912902832
304998.4557749033,0.14916247129440308,0.3749123215675354,0.6625133156776428,0.9999703764915466,1.4075398445129395,1.6551473140716553,1.8737218379974365,2.38919997215271
304998.45977490325,0.243136465549469,0.6303339004516602,1.0647774934768677,1.5294830799102783,1.8826686143875122,2.005668878555298,1.7739099264144897,1.8098962306976318
304998.46377490327,0.32254400849342346,0.8501990437507629,1.3847225904464722,1.917070746421814,2.062446355819702,1.920851230621338,1.2200195789337158,0.5133397579193115
304998.4677749033,0.3669653832912445,0.970752477645874,1.5975732803344727,2.1811680793762207,2.382244110107422,2.249030113220215,1.4083023071289062,0.5872397422790527
304998.4717749033,0.22281412780284882,0.5848893523216248,0.8181490898132324,0.6644402146339417,0.2953932285308838,-0.11681964993476868,-0.28378593921661377,0.5537546277046204
304998.47577490326,0.34102028608322144,0.7952445149421692,0.9275532960891724,0.4874306321144104,0.03730406239628792,0.12061463296413422,0.6144262552261353,1.9096591472625732
304998.4797749033,0.433649480342865,0.9231724739074707,0.8798468708992004,0.17580029368400574,-0.29638439416885376,0.5599921941757202,1.754630208015442,3.2523715496063232
304998.4837749033,0.493961364030838,1.053084373474121,0.9959469437599182,0.16780321300029755,-0.36465945839881897,0.61509770154953,2.0447490215301514,3.8308138847351074
304998.4877749033,0.27606630325317383,0.45925840735435486,0.09993594139814377,-0.17307424545288086,0.5020001530647278,1.7383822202682495,1.734523057937622,0.43495672941207886
304998.49177490326,0.4010007977485657,0.5509558916091919,-0.02551080845296383,0.06001495197415352,1.2108018398284912,2.1824934482574463,1.140438437461853,0.3155688941478729
304998.4957749033,0.4917410612106323,0.5627410411834717,-0.17349956929683685,0.37627270817756653,1.8945354223251343,2.2457191944122314,0.1628689020872116,0.363110214471817
304998.4997749033,0.557930052280426,0.6387884616851807,-0.20873017609119415,0.4268849790096283,2.1899919509887695,2.620793104171753,0.1170298233628273,0.27348437905311584
304998.5037749033,0.284659206867218,0.15495173633098602,-0.127434641122818,0.8862196207046509,1.2171698808670044,-0.2355463057756424,0.43174320459365845,2.243673801422119
304998.50777490326,0.3971206843852997,0.11244169622659683,0.045896489173173904,1.450940489768982,1.0624873638153076,-0.17953889071941376,1.5985476970672607,2.120473623275757
304998.5117749033,0.47059184312820435,0.033958058804273605,0.2683734893798828,1.9078102111816406,0.6350677609443665,0.0866888239979744,2.7717232704162598,1.2982730865478516
304998.5157749033,0.534066379070282,0.03465716540813446,0.30565768480300903,2.181525707244873,0.6934837102890015,0.037442438304424286,3.2521564960479736,1.51918625831604
304998.5197749033,0.2612091898918152,-0.07023855298757553,0.5550635457038879,0.7976418137550354,-0.15410463511943817,1.2736060619354248,1.0485175848007202,-0.2930537462234497
304998.52377490327,0.3469828963279724,-0.09743759781122208,0.9801781177520752,0.6625785231590271,0.20995546877384186,1.8741786479949951,0.313936322927475,1.2942508459091187
304998.5277749033,0.395139217376709,-0.11417066305875778,1.3435273170471191,0.34904101490974426,0.7156326174736023,2.228599786758423,-0.6229949593544006,3.1962785720825195
304998.5317749033,0.44860556721687317,-0.13043080270290375,1.5400445461273193,0.38495975732803345,0.7835770845413208,2.569579601287842,-0.8367583751678467,3.6956751346588135
304998.5357749033,0.1973404586315155,-0.007339592091739178,0.8885498046875,-0.2412504255771637,1.4021713733673096,0.04496613144874573,1.6905773878097534,1.2817333936691284
304998.53977490327,0.24804450571537018,0.07749040424823761,1.0534191131591797,-0.11334670335054398,1.831017017364502,-0.00396588584408164,2.4910240173339844,0.654157817363739
304998.5437749033,0.2686938941478729,0.1849394291639328,1.072801947593689,0.1273764818906784,2.020193099975586,0.07489567995071411,3.0329697132110596,-0.056295230984687805
304998.5477749033,0.3042941391468048,0.20834408700466156,1.2158472537994385,0.13536061346530914,2.3016538619995117,0.004090168513357639,3.5507402420043945,-0.30118638277053833
304998.5517749033,0.11356938630342484,0.3635534346103668,0.18567006289958954,0.8816919922828674,0.1759265810251236,1.3628513813018799,0.052164025604724884,1.8351953029632568
304998.5557749033,0.1539541780948639,0.6137692332267761,0.14015550911426544,1.4910054206848145,-0.017080960795283318,2.295701742172241,-0.29285383224487305,2.862511396408081
304998.5597749033,0.1780407577753067,0.7027223706245422,0.16657963395118713,1.7270721197128296,-0.013854405842721462,2.667407989501953,-0.32559871673583984,3.3257737159729004
304998.5637749033,0.049722328782081604,0.5190119743347168,-0.19008290767669678,1.0362361669540405,-0.045654669404029846,1.0624873638153076,0.9217362403869629,-0.10782217234373093
304998.56777490326,0.04492936655879021,0.7858588099479675,-0.19304130971431732,1.2076088190078735,0.6535977125167847,0.614396870136261,2.6207313537597656,0.45162433385849
304998.5717749033,0.030059080570936203,0.9816365838050842,-0.131320983171463,1.1700464487075806,1.4573911428451538,-0.018671920523047447,4.383101463317871,1.573151707649231
304998.5757749033,0.03244927525520325,1.121016263961792,-0.1607736200094223,1.3417198657989502,1.6779711246490479,-0.11200568079948425,5.028372764587402,1.5609711408615112
304998.5797749033,-0.014392453245818615,0.5636467337608337,0.2459617257118225,0.045193836092948914,1.5000935792922974,0.24874167144298553,0.6525093913078308,3.2247262001037598
304998.58377490327,-0.03841958940029144,0.7292382717132568,0.5995051860809326,-0.05477727949619293,1.6160495281219482,1.3263251781463623,0.36890727281570435,2.5214836597442627
304998.5877749033,-0.06129144877195358,0.8071800470352173,0.9537532925605774,-0.15486375987529755,1.3871897459030151,2.4829139709472656,0.18385599553585052,1.1426368951797485
304998.5917749033,-0.07006600499153137,0.9209651947021484,1.096022129058838,-0.2013237178325653,1.582760214805603,2.863267421722412,0.029869062826037407,1.2414816617965698
304998.5957749033,-0.04514620453119278,0.3236260414123535,0.8304654359817505,0.16773952543735504,-0.18894122540950775,1.3450462818145752,1.7396039962768555,0.15489423274993896
304998.59977490327,-0.0633929893374443,0.33119580149650574,1.189383625984192,0.7627105116844177,-0.044242676347494125,0.8591426014900208,2.3057541847229004,1.591463327407837
304998.6037749033,-0.07632039487361908,0.2794342041015625,1.4213886260986328,1.4131829738616943,0.20058362185955048,0.09823188930749893,2.382758617401123,3.1409366130828857
304998.6077749033,-0.08681018650531769,0.3130171000957489,1.6249501705169678,1.614129662513733,0.21176664531230927,0.031128037720918655,2.7976603507995605,3.6709535121917725
304998.6117749033,-0.03912079706788063,0.0068814512342214584,0.5449607372283936,1.1388362646102905,0.9409583210945129,0.18674451112747192,-0.37271764874458313,0.8832014203071594
304998.6157749033,-0.040710411965847015,-0.0432288683950901,0.5055325627326965,1.40782630443573,1.707119107246399,1.1893463134765625,0.28908848762512207,0.4851463735103607
304998.6197749033,-0.035352203994989395,-0.10213269293308258,0.34932395815849304,1.4590073823928833,2.364924907684326,2.331860303878784,1.2759658098220825,0.09387821704149246
304998.6237749033,-0.040037598460912704,-0.11754117161035538,0.3927468955516815,1.6724512577056885,2.7360775470733643,2.669795274734497,1.4133403301239014,-0.11403311043977737
304998.6277749033,0.012005725875496864,-0.11949141323566437,-0.11350690573453903,0.19946275651454926,0.7166089415550232,1.5670208930969238,2.101053476333618,1.8596301078796387
304998.6317749033,0.04093971848487854,-0.0888562947511673,-0.1799493432044983,0.023323776200413704,0.4218381345272064,1.1509405374526978,1.9992954730987549,1.9948084354400635
304998.6357749033,0.07242067903280258,-0.025777898728847504,-0.20532575249671936,-0.2075175642967224,-0.030865324661135674,0.3249211609363556,1.3520710468292236,1.6253231763839722
304998.6397749033,0.08290647715330124,-0.027981773018836975,-0.2396106868982315,-0.24149799346923828,-0.05619737505912781,0.3625437319278717,1.5122369527816772,1.9114665985107422
304998.6437749033,0.08688606321811676,0.1203673779964447,0.1036219671368599,0.1182270273566246,0.0709952637553215,0.07736588269472122,-0.30094319581985474,-0.19466114044189453
304998.6477749033,0.15402665734291077,0.29425713419914246,0.42984187602996826,0.613643229007721,0.7728608846664429,0.8784047365188599,0.8073534369468689,1.236971378326416
304998.6517749033,0.21474170684814453,0.4682703912258148,0.7825270295143127,1.1766914129257202,1.5809056758880615,1.7865484952926636,2.0638091564178467,3.0109453201293945
304998.6557749033,0.2446071207523346,0.5361300706863403,0.8948176503181458,1.336371660232544,1.8043451309204102,2.0687410831451416,2.4005064964294434,3.47041392326355
304998.6597749033,0.19869855046272278,0.5290418863296509,0.8748361468315125,1.3355467319488525,1.3810218572616577,1.3374767303466797,1.517932653427124,0.9374473690986633
304998.6637749033,0.31456711888313293,0.8361760973930359,1.3528807163238525,1.9970687627792358,1.9120829105377197,1.685302495956421,1.514341950416565,0.6358280777931213
304998.6677749033,0.3610880672931671,0.9632273316383362,1.550850749015808,2.3162248134613037,2.203606605529785,1.9892873764038086,1.7510626316070557,0.7518959641456604
304998.6717749033,0.22637465596199036,0.5608361959457397,0.7642930150032043,0.6598995327949524,0.1402847170829773,-0.26154059171676636,-0.01579814963042736,0.6105328798294067
304998.67577490327,0.34468966722488403,0.7994737029075623,0.8905278444290161,0.5271037220954895,-0.06699114292860031,-9.895861148834229e-05,0.950839638710022,1.983302116394043
304998.6797749033,0.4366711676120758,0.9594686031341553,0.8711033463478088,0.25693485140800476,-0.22765593230724335,0.44436413049697876,2.093325614929199,3.4104955196380615
304998.6837749033,0.4953630566596985,1.0952835083007812,0.9924826622009277,0.27689504623413086,-0.319492906332016,0.44692593812942505,2.3932740688323975,3.926543712615967
304998.6877749033,0.27848467230796814,0.45566463470458984,0.13020330667495728,-0.22075936198234558,0.4733317494392395,1.6015560626983643,1.7823785543441772,0.5189651250839233
304998.6917749033,0.399681031703949,0.5442464351654053,0.0025973243173211813,0.030312925577163696,1.268369197845459,2.051555633544922,1.2613474130630493,0.5610924959182739
304998.6957749033,0.4854963719844818,0.5545865297317505,-0.16879978775978088,0.3659314215183258,2.078803300857544,2.1387746334075928,0.40810319781303406,0.834912896156311
304998.6997749033,0.5528982281684875,0.6281712055206299,-0.2016238123178482,0.41563680768013,2.379199504852295,2.475217342376709,0.3741142749786377,0.6671820282936096
304998.7037749033,0.29228171706199646,0.1503063589334488,-0.10268925875425339,0.8329415917396545,1.3295207023620605,0.061712734401226044,0.5401158928871155,3.2289938926696777
304998.7077749033,0.4063257873058319,0.09532695263624191,0.05422420799732208,1.4136611223220825,1.084520936012268,0.18085303902626038,2.9447622299194336,2.9003477096557617
304998.7117749033,0.48031720519065857,0.006213462445884943,0.2601679861545563,1.9126558303833008,0.5311535000801086,0.39700406789779663,5.575726509094238,1.8347772359848022
304998.7157749033,0.5463072657585144,0.004057304933667183,0.2911005914211273,2.191377878189087,0.589638888835907,0.41981324553489685,6.58624792098999,2.069493532180786
304998.7197749033,0.2619688808917999,-0.06927274912595749,0.5535380840301514,0.818758487701416,-0.24649566411972046,1.5523470640182495,1.7570230960845947,-0.34552183747291565
304998.7237749033,0.348082959651947,-0.12474653869867325,0.9946357607841492,0.6715455055236816,0.1323387175798416,2.250209331512451,1.0181368589401245,1.1598409414291382
304998.7277749033,0.39551764726638794,-0.16969825327396393,1.378036379814148,0.34583958983421326,0.690079927444458,2.5665793418884277,0.18137747049331665,2.816650152206421
304998.7317749033,0.4480676054954529,-0.1929251104593277,1.5796388387680054,0.3784380555152893,0.7690685987472534,2.9999773502349854,0.05297647789120674,3.3800339698791504
304998.7357749033,0.19507795572280884,-0.013678467832505703,0.8337259292602539,-0.1755134016275406,1.3102867603302002,0.04537808895111084,1.139763593673706,1.2591685056686401
304998.7397749033,0.24641065299510956,0.07262108474969864,1.0137624740600586,-0.10295940935611725,1.7972198724746704,-0.0589694082736969,2.18410062789917,0.7357427477836609
304998.7437749033,0.2678025960922241,0.18317604064941406,1.0409348011016846,0.08212236315011978,2.031059980392456,-0.06364210695028305,3.006804943084717,0.11637219786643982
304998.7477749033,0.30322760343551636,0.20819175243377686,1.1839860677719116,0.06507568061351776,2.3627536296844482,-0.12379737943410873,3.5499320030212402,-0.028860801830887794
304998.7517749033,0.11312761157751083,0.292807012796402,0.23976750671863556,0.6897074580192566,0.20955049991607666,1.1346074342727661,0.059607356786727905,1.6993886232376099
304998.7557749033,0.12816403806209564,0.522712230682373,0.11862611770629883,1.2659790515899658,-0.0008851028396748006,1.8050158023834229,-0.02818336710333824,2.2865138053894043
304998.7597749033,0.12352831661701202,0.7253492474555969,-0.06125772371888161,1.7623258829116821,-0.21929232776165009,2.2642223834991455,0.11388307064771652,2.374077558517456
304998.7637749033,0.13976044952869415,0.8309445977210999,-0.06980518251657486,2.033196210861206,-0.2586626410484314,2.633058547973633,-0.017923040315508842,2.8668062686920166
304998.76777490333,0.028976861387491226,0.5636084079742432,-0.18561920523643494,1.0248851776123047,0.4965062737464905,0.23671896755695343,1.9086681604385376,0.025402935221791267
304998.7717749033,0.01738426648080349,0.8160027861595154,-0.07568346709012985,0.9721204042434692,1.2698698043823242,0.09616143256425858,2.1560471057891846,1.070451259613037
304998.7757749033,-0.0007831911789253354,0.9947994947433472,0.08799616247415543,0.7143054604530334,2.0001842975616455,0.029753489419817924,1.94722318649292,2.357856035232544
304998.7797749033,-0.0022479433100670576,1.1247605085372925,0.11077263206243515,0.7935577630996704,2.347778081893921,-0.02772953175008297,2.2542455196380615,2.680157423019409
304998.78377490334,-0.02705466002225876,0.5092007517814636,0.4098016917705536,-0.039482180029153824,1.1833733320236206,0.9519510865211487,-0.25730207562446594,1.5815479755401611
304998.7877749033,-0.055004753172397614,0.6374543309211731,0.847815752029419,-0.0861729085445404,0.991367518901825,1.857386827468872,0.4107091426849365,1.1140292882919312
304998.7917749033,-0.0812087282538414,0.681198000907898,1.2736124992370605,-0.10005530714988708,0.548518717288971,2.6395273208618164,1.4432834386825562,0.3884033262729645
304998.7957749033,-0.09351711720228195,0.7763261795043945,1.4535402059555054,-0.14602044224739075,0.6004378199577332,3.073807954788208,1.6092654466629028,0.31263476610183716
304998.79977490334,-0.05462303385138512,0.22001944482326508,0.8952033519744873,0.7465826869010925,0.016274617984890938,0.42316102981567383,1.8440190553665161,1.6959372758865356
304998.8037749033,-0.07835815101861954,0.27042755484580994,1.3577837944030762,1.3800009489059448,0.12479130178689957,0.23395568132400513,2.339771270751953,3.211045503616333
304998.8077749033,-0.09160269051790237,0.312224417924881,1.5615068674087524,1.5707234144210815,0.11906047910451889,0.28349360823631287,2.7937235832214355,3.729383707046509
304998.8117749033,-0.04397590085864067,0.004948390182107687,0.5482625365257263,1.1230173110961914,0.9841086268424988,0.11419110000133514,-0.3771982491016388,0.6652361154556274
304998.8157749033,-0.0470728799700737,-0.06087268143892288,0.517926037311554,1.3870694637298584,1.7134493589401245,0.9934296607971191,0.2527373135089874,0.5859608054161072
304998.8197749033,-0.04212095960974693,-0.13495735824108124,0.3834715187549591,1.425123929977417,2.284714460372925,1.9455337524414062,1.1490020751953125,0.6496187448501587
304998.8237749033,-0.048108428716659546,-0.15865746140480042,0.4250538945198059,1.6356054544448853,2.6693825721740723,2.268181085586548,1.2878828048706055,0.5434125661849976
304998.82777490333,0.009410953149199486,-0.09769505262374878,-0.07024708390235901,0.16651831567287445,0.7871102094650269,1.4132479429244995,1.9658663272857666,3.219693422317505
304998.8317749033,0.039380449801683426,-0.07210670411586761,-0.17172008752822876,-0.04483385756611824,0.42058753967285156,1.0681828260421753,1.7908289432525635,3.1534974575042725
304998.8357749033,0.07382015883922577,-0.029762083664536476,-0.25610819458961487,-0.2870889902114868,-0.09065032750368118,0.38318076729774475,1.0252913236618042,2.336455821990967
