lsl_time,C3,C4,CZ,CP3,CP4,CPZ,FC3,FC4
313309.05335815734,237.77085876464844,-187.28573608398438,-207.05091857910156,-337.1024169921875,128.8699493408203,291.5458679199219,144.55140686035156,-480.1065673828125
313309.0573581573,237.30422973632812,-187.33619689941406,-207.1143798828125,-337.1358947753906,128.73605346679688,291.3929748535156,144.32408142089844,-480.1919860839844
313309.0613581573,239.59640502929688,-184.86416625976562,-204.6338653564453,-334.4815368652344,131.07667541503906,293.7820739746094,146.83807373046875,-477.90582275390625
313309.0653581573,240.9268341064453,-183.9608917236328,-203.68661499023438,-333.519287109375,132.11634826660156,294.9436340332031,148.0121307373047,-477.05950927734375
313309.06935815734,239.90115356445312,-185.40274047851562,-205.08799743652344,-334.8826904296875,130.91131591796875,293.9554443359375,146.7416534423828,-478.4464111328125
313309.0733581573,238.15505981445312,-187.4521026611328,-207.1823272705078,-336.94854736328125,128.88893127441406,292.02947998046875,144.7537384033203,-480.4302978515625
313309.0773581573,237.71839904785156,-187.65443420410156,-207.37367248535156,-337.0085144042969,128.56069946289062,291.7257080078125,144.42750549316406,-480.7010803222656
313309.08135815733,239.49148559570312,-185.39125061035156,-205.1554412841797,-334.6818542480469,130.5511016845703,293.63818359375,146.55030822753906,-478.56329345703125
313309.08535815735,240.54913330078125,-184.41651916503906,-204.21519470214844,-333.7950744628906,131.52532958984375,294.5469665527344,147.60696411132812,-477.57110595703125
313309.0893581573,239.67483520507812,-185.5146484375,-205.3367919921875,-334.9591369628906,130.7759246826172,293.8800048828125,146.4598846435547,-478.6477355957031
313309.0933581573,237.9512176513672,-187.5220489501953,-207.34469604492188,-337.0149841308594,128.88792419433594,291.9580383300781,144.43849182128906,-480.6141662597656
313309.09735815733,237.40264892578125,-187.78134155273438,-207.6229705810547,-337.2732849121094,128.4282989501953,291.364501953125,144.04031372070312,-480.909912109375
313309.1013581573,239.34060668945312,-185.27734375,-205.17942810058594,-334.78826904296875,130.65951538085938,293.4923095703125,146.34996032714844,-478.51483154296875
313309.1053581573,240.41224670410156,-184.22567749023438,-204.1407470703125,-333.82904052734375,131.7406463623047,294.50347900390625,147.42510986328125,-477.4501953125
313309.1093581573,239.6268768310547,-185.51715087890625,-205.34129333496094,-335.049072265625,130.63253784179688,293.5637512207031,146.4059295654297,-478.6727294921875
313309.11335815734,237.88426208496094,-187.7053985595703,-207.47459411621094,-337.28228759765625,128.63763427734375,291.6397705078125,144.4290008544922,-480.8059997558594
313309.1173581573,237.70391845703125,-187.63694763183594,-207.3496856689453,-337.1124267578125,128.60415649414062,291.58331298828125,144.4110107421875,-480.70159912109375
313309.1213581573,239.85719299316406,-184.9081268310547,-204.66732788085938,-334.35211181640625,131.07818603515625,293.8699951171875,146.90402221679688,-478.0447082519531
313309.12535815727,240.83091735839844,-183.97137451171875,-203.7115936279297,-333.3594055175781,132.0274200439453,294.7967529296875,147.84727478027344,-476.987060546875
313309.1293581573,239.8222198486328,-185.2703399658203,-204.9720916748047,-334.596435546875,130.79690551757812,293.5252685546875,146.6057586669922,-478.0697021484375
313309.1333581573,237.94772338867188,-187.2747344970703,-207.00546264648438,-336.67926025390625,129.0637969970703,291.8331298828125,144.50144958496094,-480.0291442871094
313309.1373581573,237.2542724609375,-187.42811584472656,-207.2117919921875,-336.8471374511719,128.7840118408203,291.50439453125,144.0423126220703,-480.24444580078125
313309.14135815727,239.404052734375,-184.90963745117188,-204.7042999267578,-334.1827697753906,130.98526000976562,293.6936340332031,146.44639587402344,-477.78643798828125
313309.1453581573,240.5281524658203,-183.79852294921875,-203.5941925048828,-333.0326843261719,132.05589294433594,294.82122802734375,147.5864715576172,-476.57440185546875
313309.1493581573,239.50196838378906,-185.22288513183594,-204.9665985107422,-334.46453857421875,130.69598388671875,293.4778137207031,146.33847045898438,-477.8523864746094
313309.1533581573,237.6654510498047,-187.2782440185547,-207.04293823242188,-336.62530517578125,128.70358276367188,291.514892578125,144.32508850097656,-479.8582763671875
313309.1573581573,237.22329711914062,-187.35867309570312,-207.14634704589844,-336.6512756347656,128.43128967285156,291.2251281738281,144.08277893066406,-479.9896545410156
313309.1613581573,239.26866149902344,-184.8177032470703,-204.67433166503906,-334.0958251953125,130.67100524902344,293.42486572265625,146.47337341308594,-477.55511474609375
313309.1653581573,240.43173217773438,-183.7850341796875,-203.65264892578125,-333.0981140136719,131.776123046875,294.5959167480469,147.61045837402344,-476.4959411621094
313309.1693581573,239.3316192626953,-185.2148895263672,-205.10398864746094,-334.7333068847656,130.5670928955078,293.325927734375,146.35446166992188,-477.9263000488281
313309.1733581573,237.6494598388672,-187.23477172851562,-207.11187744140625,-336.9035949707031,128.68809509277344,291.40447998046875,144.49395751953125,-479.8907470703125
313309.1773581573,237.40115356445312,-187.2947235107422,-207.14434814453125,-336.8536376953125,128.60916137695312,291.42596435546875,144.3925323486328,-480.0740966796875
313309.18135815725,239.4330291748047,-184.91563415527344,-204.7462615966797,-334.3286437988281,130.80589294433594,293.6282043457031,146.72816467285156,-477.80291748046875
313309.18535815727,240.34829711914062,-184.0458221435547,-203.82749938964844,-333.4488525390625,131.6202392578125,294.3016662597656,147.64743041992188,-476.7457580566406
313309.1893581573,239.29164123535156,-185.23736572265625,-204.9840850830078,-334.6648864746094,130.52862548828125,293.12310791015625,146.39593505859375,-477.7914123535156
313309.1933581573,237.60899353027344,-187.02394104003906,-206.81861877441406,-336.5463562011719,128.82647705078125,291.4334411621094,144.50393676757812,-479.57049560546875
313309.19735815725,237.17733764648438,-187.1383514404297,-206.92552185058594,-336.600830078125,128.59266662597656,291.1561584472656,144.23915100097656,-479.7598571777344
313309.20135815727,239.42953491210938,-184.53292846679688,-204.33859252929688,-333.9384460449219,130.98326110839844,293.4048767089844,146.78411865234375,-477.2363586425781
313309.2053581573,240.5411376953125,-183.69261169433594,-203.43231201171875,-332.9712219238281,131.8785400390625,294.4964904785156,147.7598419189453,-476.3251037597656
313309.2093581573,239.55642700195312,-185.14793395996094,-204.81121826171875,-334.3756103515625,130.53460693359375,293.2445068359375,146.538818359375,-477.6400451660156
313309.21335815726,237.66844177246094,-187.25975036621094,-206.96749877929688,-336.6452941894531,128.4662628173828,291.1072082519531,144.43600463867188,-479.6744079589844
313309.2173581573,237.33270263671875,-187.19529724121094,-206.9669952392578,-336.6592712402344,128.59815979003906,291.3150329589844,144.2741241455078,-479.8258056640625
313309.2213581573,239.69232177734375,-184.58338928222656,-204.37457275390625,-333.9789123535156,131.21707153320312,294.06134033203125,146.9195098876953,-477.4386901855469
313309.22535815724,240.86988830566406,-183.6486358642578,-203.44931030273438,-333.1585693359375,132.34866333007812,295.2284240722656,148.05960083007812,-476.5469055175781
313309.22935815726,239.74777221679688,-185.1429443359375,-204.97657775878906,-334.75030517578125,131.0142364501953,293.8140563964844,146.69068908691406,-477.9907531738281
313309.2333581573,237.99618530273438,-187.21078491210938,-207.0304412841797,-336.7966613769531,129.06329345703125,291.94903564453125,144.7177734375,-480.01715087890625
313309.2373581573,237.4770965576172,-187.43112182617188,-207.2367706298828,-336.8636169433594,128.716064453125,291.66876220703125,144.34356689453125,-480.2889099121094
313309.24135815725,239.27015686035156,-185.22238159179688,-205.09698486328125,-334.6623840332031,130.80490112304688,293.7505798339844,146.42990112304688,-478.2820129394531
313309.24535815726,240.48318481445312,-184.21868896484375,-204.09979248046875,-333.70513916015625,131.88104248046875,294.8627014160156,147.5465087890625,-477.29180908203125
313309.2493581573,239.4340362548828,-185.7269744873047,-205.59658813476562,-335.29437255859375,130.5496063232422,293.5587463378906,146.23855590820312,-478.7291564941406
313309.2533581573,237.4720916748047,-187.96319580078125,-207.85728454589844,-337.64300537109375,128.36184692382812,291.34600830078125,144.07078552246094,-480.8974304199219
313309.25735815725,237.23928833007812,-187.9252166748047,-207.83580017089844,-337.5450744628906,128.3243865966797,291.2605895996094,143.974365234375,-480.9918518066406
313309.26135815727,239.3141326904297,-185.38475036621094,-205.34278869628906,-334.9811096191406,130.71946716308594,293.6426696777344,146.37794494628906,-478.645751953125
313309.2653581573,240.55313110351562,-184.3760528564453,-204.33010864257812,-333.97393798828125,131.76962280273438,294.7358093261719,147.52452087402344,-477.60107421875
313309.2693581573,239.6608428955078,-185.70199584960938,-205.64654541015625,-335.38079833984375,130.5885772705078,293.58221435546875,146.38693237304688,-478.8665466308594
313309.2733581573,237.83131408691406,-187.86227416992188,-207.766845703125,-337.5875244140625,128.54071044921875,291.5603332519531,144.3820343017578,-480.97637939453125
313309.27735815727,237.5270538330078,-187.75885009765625,-207.6569366455078,-337.41217041015625,128.58267211914062,291.6222839355469,144.276123046875,-480.9583740234375
313309.2813581573,239.58241271972656,-185.2258758544922,-205.14195251464844,-334.8317565917969,130.95077514648438,293.906982421875,146.6522216796875,-478.5558166503906
313309.2853581573,240.869384765625,-184.2021942138672,-204.0847930908203,-333.79156494140625,131.97496032714844,294.8921813964844,147.8372802734375,-477.4861755371094
313309.2893581573,239.6658477783203,-185.6905059814453,-205.54612731933594,-335.351318359375,130.57208251953125,293.454345703125,146.45738220214844,-478.8340759277344
313309.2933581573,237.93173217773438,-187.64244079589844,-207.465087890625,-337.333740234375,128.68609619140625,291.7381896972656,144.555908203125,-480.6566162109375
313309.2973581573,237.61648559570312,-187.67591857910156,-207.5060577392578,-337.27978515625,128.50872802734375,291.6238098144531,144.45848083496094,-480.74554443359375
313309.3013581573,239.65785217285156,-185.23936462402344,-205.13345336914062,-334.7972717285156,130.8438720703125,293.9444274902344,146.7846221923828,-478.473876953125
313309.3053581573,240.60409545898438,-184.3920440673828,-204.24217224121094,-333.9349670410156,131.7151641845703,294.67236328125,147.6829071044922,-477.49615478515625
313309.3093581573,239.54794311523438,-185.6460418701172,-205.50816345214844,-335.2773742675781,130.49864196777344,293.3733825683594,146.44839477539062,-478.6267395019531
313309.3133581573,237.96620178222656,-187.45809936523438,-207.35118103027344,-337.118408203125,128.7715301513672,291.7362060546875,144.59986877441406,-480.4687805175781
313309.3173581573,237.58551025390625,-187.52503967285156,-207.3821563720703,-337.07196044921875,128.6641082763672,291.6622619628906,144.37355041503906,-480.6191711425781
313309.3213581573,239.77426147460938,-184.88565063476562,-204.7782440185547,-334.4465637207031,131.1381378173828,294.03936767578125,146.89303588867188,-478.14862060546875
313309.3253581573,240.8873748779297,-184.0093536376953,-203.85498046875,-333.61370849609375,131.96047973632812,294.7537841796875,147.97117614746094,-477.2093811035156
313309.3293581573,239.65284729003906,-185.53863525390625,-205.36328125,-335.18896484375,130.71746826171875,293.57672119140625,146.53732299804688,-478.6617126464844
313309.3333581573,237.92074584960938,-187.43211364746094,-207.2797393798828,-337.1793518066406,129.13372802734375,292.075439453125,144.53392028808594,-480.5901794433594
313309.3373581573,237.60748291015625,-187.54452514648438,-207.36367797851562,-337.2218322753906,128.8474578857422,291.76068115234375,144.3655548095703,-480.7735290527344
313309.3413581573,239.73179626464844,-184.9575958251953,-204.8411865234375,-334.65386962890625,131.30799865722656,294.2536926269531,146.8155975341797,-478.3294982910156
313309.3453581573,240.65354919433594,-184.1082763671875,-203.9863739013672,-333.8310546875,132.17379760742188,295.0720520019531,147.7113800048828,-477.3652648925781
313309.3493581573,239.59390258789062,-185.35028076171875,-205.23338317871094,-335.20245361328125,130.9322967529297,293.6476745605469,146.5353240966797,-478.3809509277344
313309.3533581573,237.7788543701172,-187.3282012939453,-207.206298828125,-337.21734619140625,129.01832580566406,291.8136291503906,144.52243041992188,-480.2369689941406
313309.3573581573,237.75038146972656,-187.01943969726562,-206.91802978515625,-336.86712646484375,129.0657958984375,291.80364990234375,144.6927947998047,-479.9706726074219
313309.3613581573,239.75177001953125,-184.70179748535156,-204.6218719482422,-334.5329895019531,131.129638671875,293.8050537109375,146.99795532226562,-477.77593994140625
313309.3653581573,240.70901489257812,-183.9648895263672,-203.8624725341797,-333.7301330566406,131.9754638671875,294.7373046875,147.85476684570312,-477.0175476074219
313309.36935815733,239.6138916015625,-185.31781005859375,-205.2613525390625,-335.156494140625,130.81289672851562,293.519287109375,146.560302734375,-478.32049560546875
313309.3733581573,237.83030700683594,-187.34918212890625,-207.29273986816406,-337.18585205078125,128.8794403076172,291.6612548828125,144.5529022216797,-480.2734375
313309.3773581573,237.69091796875,-187.27923583984375,-207.22727966308594,-337.02398681640625,128.88343811035156,291.80413818359375,144.51393127441406,-480.3588562011719
313309.3813581573,239.75128173828125,-184.93112182617188,-204.9271240234375,-334.71185302734375,131.0671844482422,293.9189453125,146.84307861328125,-478.23956298828125
313309.38535815733,240.47569274902344,-184.3485870361328,-204.37705993652344,-334.17376708984375,131.77761840820312,294.6199035644531,147.49554443359375,-477.68402099609375
313309.3893581573,239.4505157470703,-185.51564025878906,-205.58409118652344,-335.40228271484375,130.77243041992188,293.63018798828125,146.27651977539062,-478.7811279296875
313309.3933581573,237.7583770751953,-187.50355529785156,-207.5345458984375,-337.3786926269531,128.9188995361328,291.76318359375,144.32858276367188,-480.67010498046875
313309.3973581573,237.5685272216797,-187.44461059570312,-207.4615936279297,-337.2103271484375,128.8699493408203,291.7886657714844,144.30459594726562,-480.68060302734375
313309.4013581573,239.5679168701172,-185.0695037841797,-205.11996459960938,-334.7812805175781,131.1421356201172,294.22821044921875,146.6112518310547,-478.5053405761719
313309.4053581573,240.56712341308594,-184.4070281982422,-204.41453552246094,-334.11480712890625,131.81459045410156,294.790771484375,147.4890594482422,-477.80841064453125
313309.4093581573,239.50897216796875,-185.89984130859375,-205.85537719726562,-335.6405944824219,130.46217346191406,293.4493408203125,146.22706604003906,-479.185302734375
313309.4133581573,237.75637817382812,-187.9267120361328,-207.86227416992188,-337.72943115234375,128.5237274169922,291.5868225097656,144.27513122558594,-481.125244140625
313309.4173581573,237.3047332763672,-188.0016632080078,-207.90724182128906,-337.7144470214844,128.36085510253906,291.40496826171875,144.02532958984375,-481.1986999511719
313309.4213581573,239.54994201660156,-185.3078155517578,-205.29782104492188,-334.9691467285156,130.8948211669922,293.8695068359375,146.5548095703125,-478.69818115234375
313309.4253581573,240.64356994628906,-184.20669555664062,-204.27914428710938,-333.9869079589844,131.9614715576172,294.8871765136719,147.5984649658203,-477.62506103515625
313309.4293581573,239.70431518554688,-185.43470764160156,-205.42922973632812,-335.12750244140625,130.85336303710938,293.8280334472656,146.44189453125,-478.6557312011719
313309.4333581573,237.74887084960938,-187.6234588623047,-207.57200622558594,-337.3102722167969,128.72256469726562,291.7197265625,144.2726287841797,-480.715087890625
313309.4373581573,237.4945831298828,-187.5330352783203,-207.4920654296875,-337.171875,128.55670166015625,291.50238037109375,144.24615478515625,-480.6686096191406
313309.4413581573,239.63986206054688,-184.96658325195312,-204.9990692138672,-334.6379089355469,131.04220581054688,293.89697265625,146.67770385742188,-478.2850341796875
313309.4453581573,240.52615356445312,-184.22218322753906,-204.2716522216797,-334.0098876953125,131.98045349121094,294.9346618652344,147.47605895996094,-477.6000671386719
313309.4493581573,239.6013946533203,-185.4232177734375,-205.45669555664062,-335.2549133300781,130.89633178710938,293.88299560546875,146.3609619140625,-478.7066955566406
313309.4533581573,237.6494598388672,-187.62095642089844,-207.65093994140625,-337.49310302734375,128.80650329589844,291.7586975097656,144.18370056152344,-480.8265075683594
313309.4573581573,237.35169982910156,-187.52853393554688,-207.58499145507812,-337.3712158203125,128.7085723876953,291.5593566894531,144.04730224609375,-480.79852294921875
313309.4613581573,239.53994750976562,-184.96058654785156,-205.0380401611328,-334.7463073730469,131.12913513183594,294.0313720703125,146.52432250976562,-478.3594665527344
313309.4653581573,240.38076782226562,-184.2951202392578,-204.3960418701172,-334.20623779296875,131.91500854492188,294.8597106933594,147.32568359375,-477.7369689941406
313309.4693581573,239.27066040039062,-185.65753173828125,-205.7534637451172,-335.67156982421875,130.57757568359375,293.4718017578125,146.07618713378906,-478.926513671875
313309.4733581573,237.40016174316406,-187.5869903564453,-207.66993713378906,-337.549560546875,128.64662170410156,291.5213623046875,144.01632690429688,-480.6606140136719
313309.4773581573,237.16184997558594,-187.37266540527344,-207.4486083984375,-337.2198181152344,128.72755432128906,291.5318603515625,143.9329071044922,-480.521240234375
313309.4813581573,239.37557983398438,-184.7442626953125,-204.87416076660156,-334.53448486328125,131.1870880126953,293.8809814453125,146.4364013671875,-478.01373291015625
313309.4853581573,240.4147491455078,-183.86746215820312,-203.9573974609375,-333.6112060546875,132.0434112548828,294.7647705078125,147.4296112060547,-477.0230407714844
313309.4893581573,239.1632537841797,-185.3692626953125,-205.40524291992188,-335.1694641113281,130.62403869628906,293.3404235839844,146.0247344970703,-478.3589782714844
313309.4933581573,237.34970092773438,-187.3861541748047,-207.37466430664062,-337.1553955078125,128.6061553955078,291.364990234375,144.060791015625,-480.2015075683594
313309.4973581573,237.27626037597656,-187.1278533935547,-207.10888671875,-336.8066711425781,128.7105712890625,291.4524230957031,144.16371154785156,-480.04510498046875
313309.5013581573,239.42303466796875,-184.50645446777344,-204.5584259033203,-334.3006591796875,131.22906494140625,293.9029846191406,146.66221618652344,-477.6100769042969
313309.50535815733,240.39926147460938,-183.73606872558594,-203.79502868652344,-333.562744140625,132.0489044189453,294.7308044433594,147.55300903320312,-476.8132019042969
313309.5093581573,239.40505981445312,-185.33778381347656,-205.2738494873047,-335.0320739746094,130.5670928955078,293.3024597167969,146.2320556640625,-478.2765197753906
313309.5133581573,237.5270538330078,-187.4196319580078,-207.3426971435547,-337.1648864746094,128.6116485595703,291.3310241699219,144.18370056152344,-480.2779235839844
313309.5173581573,237.4556121826172,-187.16383361816406,-207.12237548828125,-336.93756103515625,128.9638671875,291.67425537109375,144.32559204101562,-480.2054748535156
313309.52135815733,239.70530700683594,-184.8302001953125,-204.76925659179688,-334.4955139160156,131.08816528320312,293.79656982421875,146.80709838867188,-477.9772644042969
313309.5253581573,240.6180877685547,-184.01983642578125,-204.0778045654297,-333.7611083984375,132.04090881347656,294.9651184082031,147.54501342773438,-477.34478759765625
313309.5293581573,239.49647521972656,-185.47967529296875,-205.52964782714844,-335.2474060058594,130.88233947753906,293.89447021484375,146.1276397705078,-478.8280944824219
313309.5333581573,237.701416015625,-187.5155487060547,-207.5385284423828,-337.2278137207031,128.8959197998047,291.968505859375,144.11724853515625,-480.7435607910156
313309.5373581573,237.58201599121094,-187.33119201660156,-207.3386993408203,-336.9340515136719,128.89242553710938,291.9635314941406,144.22267150878906,-480.58367919921875
313309.5413581573,239.38906860351562,-185.11097717285156,-205.1854248046875,-334.7633056640625,130.92330932617188,293.8475036621094,146.3969268798828,-478.4458923339844
313309.5453581573,240.42674255371094,-184.26315307617188,-204.3106231689453,-333.9544372558594,131.79360961914062,294.69732666015625,147.379638671875,-477.5001525878906
313309.5493581573,239.35609436035156,-185.67752075195312,-205.6675262451172,-335.38580322265625,130.50064086914062,293.52178955078125,146.07119750976562,-478.7991027832031
313309.5533581573,237.6929168701172,-187.6934051513672,-207.63096618652344,-337.3187561035156,128.66111755371094,291.8051452636719,144.1876983642578,-480.7435607910156
313309.5573581573,237.70040893554688,-187.42062377929688,-207.3841552734375,-336.9840087890625,128.8374786376953,291.9500427246094,144.37005615234375,-480.6121520996094
313309.5613581573,239.81222534179688,-184.91412353515625,-204.9456024169922,-334.5144958496094,131.20558166503906,294.2561950683594,146.7566375732422,-478.280517578125
313309.5653581573,240.481689453125,-184.32460021972656,-204.3096160888672,-333.971435546875,131.68519592285156,294.59991455078125,147.4041290283203,-477.5091552734375
313309.5693581573,239.4420166015625,-185.50115966796875,-205.4626922607422,-335.11151123046875,130.55259704589844,293.5232849121094,146.2620391845703,-478.4618835449219
313309.5733581573,237.45660400390625,-187.572998046875,-207.4920654296875,-337.1683654785156,128.49224853515625,291.4654235839844,144.12474060058594,-480.3288879394531
313309.57735815726,237.30772399902344,-187.2742462158203,-207.19281005859375,-336.8646240234375,128.55918884277344,291.46142578125,144.22216796875,-480.0855712890625
313309.5813581573,239.71929931640625,-184.48297119140625,-204.45550537109375,-334.10882568359375,131.23155212402344,294.1427917480469,146.9195098876953,-477.48468017578125
313309.5853581573,240.54864501953125,-183.8304901123047,-203.79652404785156,-333.5302734375,131.92449951171875,294.72332763671875,147.66891479492188,-476.7727355957031
313309.5893581573,239.32061767578125,-185.28883361816406,-205.24037170410156,-335.006591796875,130.55960083007812,293.2460021972656,146.1920928955078,-478.07269287109375
313309.59335815726,237.57452392578125,-187.20529174804688,-207.18531799316406,-336.99151611328125,128.7285614013672,291.4224548339844,144.23365783691406,-479.9661865234375
313309.5973581573,237.75787353515625,-186.74766540527344,-206.7156982421875,-336.36651611328125,129.14622497558594,292.0065002441406,144.5044403076172,-479.6754150390625
313309.6013581573,240.0310516357422,-184.06980895996094,-204.01934814453125,-333.5712585449219,131.55479431152344,294.3436279296875,147.11685180664062,-477.06451416015625
313309.6053581573,240.72898864746094,-183.58119201660156,-203.48777770996094,-333.0771484375,132.04090881347656,294.704833984375,147.69789123535156,-476.53741455078125
313309.60935815726,239.78125,-184.92662048339844,-204.80921936035156,-334.42156982421875,131.00973510742188,293.703125,146.3634490966797,-477.8878479003906
313309.6133581573,238.01016235351562,-187.00746154785156,-206.85308837890625,-336.53338623046875,129.08177185058594,291.74969482421875,144.34356689453125,-479.95318603515625
313309.6173581573,238.08860778808594,-186.64024353027344,-206.50836181640625,-336.1366882324219,129.46397399902344,292.1658630371094,144.62234497070312,-479.7798156738281
313309.6213581573,240.38526916503906,-184.04483032226562,-203.93641662597656,-333.4853210449219,131.94699096679688,294.6583557128906,147.19329833984375,-477.3487854003906
313309.62535815727,240.99928283691406,-183.67262268066406,-203.58819580078125,-333.1760559082031,132.42709350585938,295.1694641113281,147.702392578125,-477.0340270996094
313309.6293581573,239.77474975585938,-185.2268829345703,-205.1714324951172,-334.8112487792969,131.02871704101562,293.8580017089844,146.22506713867188,-478.4963684082031
313309.6333581573,237.83181762695312,-187.41212463378906,-207.3107147216797,-336.94854736328125,128.85145568847656,291.80316162109375,144.09877014160156,-480.52923583984375
313309.6373581573,237.72938537597656,-187.12835693359375,-207.05992126464844,-336.5678405761719,128.9713592529297,292.0164794921875,144.2096710205078,-480.327880859375
313309.64135815727,239.92613220214844,-184.4639892578125,-204.511962890625,-333.9624328613281,131.52381896972656,294.45703125,146.6822052001953,-477.8363952636719
313309.6453581573,240.63507080078125,-183.833984375,-203.8799591064453,-333.43035888671875,132.02792358398438,294.8377380371094,147.37664794921875,-476.9970703125
313309.6493581573,239.21270751953125,-185.69000244140625,-205.6635284423828,-335.2813720703125,130.267333984375,293.1415710449219,145.76544189453125,-478.6617126464844
313309.65335815726,237.51156616210938,-187.5585174560547,-207.60948181152344,-337.3137512207031,128.53172302246094,291.51287841796875,143.89793395996094,-480.5741882324219
313309.6573581573,237.65444946289062,-187.07440185546875,-207.14535522460938,-336.76019287109375,128.93190002441406,291.8860778808594,144.23016357421875,-480.208984375
313309.6613581573,240.02105712890625,-184.44300842285156,-204.50596618652344,-334.01239013671875,131.32247924804688,294.2811584472656,146.8245849609375,-477.676025390625
313309.6653581573,240.76596069335938,-183.81100463867188,-203.82650756835938,-333.4103698730469,131.9075164794922,294.72381591796875,147.55250549316406,-476.93060302734375
313309.66935815726,239.43753051757812,-185.39024353027344,-205.38426208496094,-335.0650634765625,130.43170166015625,293.1845397949219,146.06968688964844,-478.37493896484375
313309.6733581573,237.81532287597656,-187.249755859375,-207.20730590820312,-336.89959716796875,128.7410430908203,291.6327819824219,144.24464416503906,-480.1919860839844
313309.67735815723,237.9761962890625,-186.74766540527344,-206.74267578125,-336.33404541015625,129.21817016601562,292.1708679199219,144.63583374023438,-479.8632507324219
313309.68135815725,240.0205535888672,-184.38204956054688,-204.3525848388672,-333.85101318359375,131.32298278808594,294.22869873046875,146.90902709960938,-477.546630859375
313309.68535815727,240.78944396972656,-183.7075958251953,-203.66163635253906,-333.1590881347656,132.02542114257812,294.9141540527344,147.57948303222656,-476.79571533203125
313309.6893581573,239.5189666748047,-185.30531311035156,-205.23837280273438,-334.79827880859375,130.52012634277344,293.3324279785156,146.08517456054688,-478.2680358886719
313309.69335815724,237.7104034423828,-187.36717224121094,-207.29872131347656,-336.89508056640625,128.61114501953125,291.4084777832031,144.0552978515625,-480.2669372558594
313309.69735815725,237.8882598876953,-186.82809448242188,-206.78164672851562,-336.3055725097656,129.1342315673828,291.97650146484375,144.42800903320312,-479.9187316894531
313309.70135815727,239.91213989257812,-184.57290649414062,-204.52894592285156,-334.0083923339844,131.30250549316406,294.1387939453125,146.65472412109375,-477.8533630371094
313309.7053581573,240.79344177246094,-183.8284912109375,-203.73507690429688,-333.2460021972656,132.1553192138672,294.9920959472656,147.41012573242188,-477.0565185546875
313309.70935815724,239.8297119140625,-185.01954650878906,-204.87066650390625,-334.3905944824219,131.03172302246094,293.8200378417969,146.19558715820312,-478.0472106933594
313309.71335815726,237.9636993408203,-186.97747802734375,-206.8256072998047,-336.3470153808594,129.0158233642578,291.7686767578125,144.1702117919922,-479.8083190917969
313309.7173581573,237.85179138183594,-186.63575744628906,-206.4878692626953,-335.88690185546875,129.0907745361328,291.8486022949219,144.34107971191406,-479.5205383300781
313309.7213581573,240.0700225830078,-184.04881286621094,-203.97789001464844,-333.2989807128906,131.45787048339844,294.2127380371094,146.7816162109375,-477.12445068359375
313309.72535815724,240.60659790039062,-183.60617065429688,-203.6141815185547,-332.99920654296875,132.0618896484375,294.80474853515625,147.206787109375,-476.73876953125
313309.72935815726,239.37158203125,-185.07000732421875,-205.08450317382812,-334.4770202636719,130.68748474121094,293.3893737792969,145.81089782714844,-478.0577087402344
313309.7333581573,237.38467407226562,-187.2472686767578,-207.21530151367188,-336.6502990722656,128.5791778564453,291.2950439453125,143.715576171875,-480.0791015625
313309.7373581573,237.464111328125,-186.86056518554688,-206.8201141357422,-336.2041320800781,128.95986938476562,291.67926025390625,144.0368194580078,-479.853759765625
313309.74135815725,239.77525329589844,-184.19419860839844,-204.23867797851562,-333.5527648925781,131.64022827148438,294.4725036621094,146.6197509765625,-477.4117126464844
313309.74535815726,240.6270751953125,-183.55770874023438,-203.61317443847656,-332.99072265625,132.30569458007812,295.1134948730469,147.3936309814453,-476.66131591796875
313309.7493581573,239.25816345214844,-185.29432678222656,-205.3203125,-334.7742919921875,130.666015625,293.4988098144531,145.84088134765625,-478.23455810546875
313309.75335815724,237.3906707763672,-187.3017120361328,-207.35768127441406,-336.8695983886719,128.71507263183594,291.52386474609375,143.8684539794922,-480.14202880859375
313309.75735815725,237.55552673339844,-186.96498107910156,-207.05242919921875,-336.5003967285156,128.8954315185547,291.6752624511719,144.22616577148438,-479.93170166015625
313309.76135815727,239.7672576904297,-184.51695251464844,-204.6343536376953,-334.0308837890625,131.19708251953125,294.00689697265625,146.68919372558594,-477.6480407714844
313309.7653581573,240.74647521972656,-183.90443420410156,-203.9703826904297,-333.3879089355469,131.9899444580078,294.9261474609375,147.4745635986328,-477.0740051269531
313309.76935815724,239.50596618652344,-185.48716735839844,-205.55162048339844,-334.9971008300781,130.53012084960938,293.5127868652344,146.01522827148438,-478.6092529296875
313309.77335815725,237.8168182373047,-187.4256134033203,-207.39865112304688,-336.8221435546875,128.6651153564453,291.69573974609375,144.0842742919922,-480.4418029785156
313309.7773581572,237.91075134277344,-186.93751525878906,-206.9779815673828,-336.31304931640625,129.0467987060547,292.01397705078125,144.32408142089844,-480.1730041503906
313309.7813581572,240.16094970703125,-184.3635711669922,-204.5304412841797,-333.799072265625,131.45538330078125,294.3651123046875,146.7941131591797,-477.81939697265625
313309.78535815724,240.7220001220703,-184.05331420898438,-204.189208984375,-333.47882080078125,131.75364685058594,294.6548767089844,147.26722717285156,-477.3592529296875
313309.78935815726,239.5174560546875,-185.53013610839844,-205.64254760742188,-335.0350646972656,130.33877563476562,293.15606689453125,145.88034057617188,-478.6522216796875
313309.7933581572,238.11009216308594,-187.1273651123047,-207.2222900390625,-336.708740234375,128.96786499023438,291.7776794433594,144.27761840820312,-480.2214660644531
313309.79735815723,237.95571899414062,-186.9245147705078,-206.96749877929688,-336.37249755859375,128.99134826660156,291.6727600097656,144.34007263183594,-480.0491027832031
313309.80135815724,240.0470428466797,-184.3960418701172,-204.46099853515625,-333.8090515136719,131.2515411376953,293.9364318847656,146.77163696289062,-477.54962158203125
313309.80535815726,240.75897216796875,-183.67112731933594,-203.76805114746094,-333.1365966796875,131.98095703125,294.6943359375,147.46656799316406,-476.71527099609375
313309.8093581572,239.4125518798828,-185.2583465576172,-205.3278045654297,-334.6923522949219,130.37774658203125,293.0406494140625,145.94029235839844,-478.0736999511719
313309.81335815723,237.57452392578125,-187.23626708984375,-207.3302001953125,-336.8111572265625,128.41331481933594,290.9873046875,143.9668731689453,-479.94720458984375
313309.81735815725,237.60499572753906,-186.7086944580078,-206.8216094970703,-336.20166015625,128.79251098632812,291.4564208984375,144.24664306640625,-479.5010681152344
313309.82135815726,239.74928283691406,-184.11827087402344,-204.25115966796875,-333.52777099609375,131.15512084960938,293.7870788574219,146.69268798828125,-476.9580993652344
313309.8253581572,240.21591186523438,-183.6846160888672,-203.81800842285156,-333.1346130371094,131.66770935058594,294.24371337890625,147.16632080078125,-476.46099853515625
313309.82935815724,238.8470001220703,-185.3927459716797,-205.5001678466797,-334.88470458984375,130.0864715576172,292.61199951171875,145.6065673828125,-478.0821838378906
313309.83335815725,237.18382263183594,-187.37815856933594,-207.39614868164062,-336.80517578125,128.15151977539062,290.6495666503906,143.77552795410156,-479.9561767578125
313309.83735815727,237.29473876953125,-186.86407470703125,-206.89755249023438,-336.22161865234375,128.48275756835938,290.97430419921875,144.0872802734375,-479.5245361328125
313309.8413581572,239.5169677734375,-184.18521118164062,-204.31011962890625,-333.5637512207031,131.09317016601562,293.6116943359375,146.55979919433594,-477.008544921875
313309.84535815724,240.09449768066406,-183.5612030029297,-203.7115936279297,-332.9487609863281,131.76663208007812,294.1982421875,147.06439208984375,-476.3150939941406
313309.84935815725,238.86148071289062,-185.15493774414062,-205.287841796875,-334.49951171875,130.31028747558594,292.79986572265625,145.53262329101562,-477.8283996582031
313309.8533581572,237.17083740234375,-187.24876403808594,-207.35968017578125,-336.6567687988281,128.42230224609375,291.07623291015625,143.62564086914062,-479.95867919921875
313309.8573581572,237.2652587890625,-186.9619903564453,-207.07191467285156,-336.3435363769531,128.64013671875,291.26007080078125,143.94088745117188,-479.874755859375
313309.86135815724,239.5674285888672,-184.49546813964844,-204.67681884765625,-333.92095947265625,131.03172302246094,293.6391906738281,146.42491149902344,-477.60906982421875
313309.86535815726,240.5191650390625,-183.84498596191406,-203.96139526367188,-333.2100524902344,131.7996063232422,294.5124816894531,147.23976135253906,-476.90911865234375
313309.8693581572,239.08030700683594,-185.503662109375,-205.57411193847656,-334.86871337890625,130.13743591308594,292.7768859863281,145.6280517578125,-478.3674621582031
313309.87335815723,237.2238006591797,-187.42062377929688,-207.4940643310547,-336.80517578125,128.1929931640625,290.7145080566406,143.56320190429688,-480.1590270996094
313309.8773581572,237.55552673339844,-186.5887908935547,-206.70021057128906,-335.889404296875,129.03482055664062,291.64727783203125,144.0787811279297,-479.51104736328125
313309.8813581572,239.74627685546875,-184.08628845214844,-204.20220947265625,-333.2804870605469,131.4368896484375,294.14727783203125,146.49835205078125,-477.1229553222656
313309.8853581572,240.5621337890625,-183.5802001953125,-203.7041015625,-332.82684326171875,132.1083526611328,294.8702087402344,147.16880798339844,-476.6543273925781
313309.88935815723,239.3805694580078,-185.245361328125,-205.3687744140625,-334.5524597167969,130.68798828125,293.4858093261719,145.75494384765625,-478.3269958496094
313309.8933581572,237.5590362548828,-187.43312072753906,-207.50955200195312,-336.729736328125,128.56118774414062,291.3365173339844,143.74905395507812,-480.4617919921875
313309.8973581572,237.97120666503906,-186.68621826171875,-206.7356719970703,-335.8424377441406,129.21566772460938,292.075927734375,144.3590545654297,-479.8597717285156
313309.9013581572,239.97059631347656,-184.38705444335938,-204.40403747558594,-333.47930908203125,131.3634490966797,294.1827392578125,146.6232452392578,-477.62054443359375
313309.90535815724,240.57911682128906,-183.92941284179688,-203.962890625,-333.2010498046875,131.862548828125,294.5984191894531,147.21926879882812,-477.1104736328125
313309.9093581572,239.51596069335938,-185.36526489257812,-205.34579467773438,-334.67987060546875,130.6155548095703,293.3808898925781,145.9407958984375,-478.4479064941406
313309.9133581572,237.7388916015625,-187.46209716796875,-207.4141387939453,-336.80517578125,128.5686798095703,291.3844909667969,143.95538330078125,-480.4637756347656
313309.9173581572,237.8612823486328,-186.81210327148438,-206.83909606933594,-336.21563720703125,128.91091918945312,291.60980224609375,144.4290008544922,-479.86724853515625
313309.92135815724,239.87867736816406,-184.40403747558594,-204.45999145507812,-333.7875671386719,131.08067321777344,293.6346740722656,146.72467041015625,-477.4836730957031
313309.9253581572,240.73348999023438,-183.8734588623047,-203.8280029296875,-333.0931396484375,131.6342315673828,294.3800964355469,147.42710876464844,-476.8406677246094
313309.9293581572,239.60240173339844,-185.2473602294922,-205.20040893554688,-334.41107177734375,130.5660858154297,293.51727294921875,146.0022430419922,-478.19110107421875
313309.9333581572,237.8038330078125,-187.14234924316406,-207.13136291503906,-336.39349365234375,128.78451538085938,291.6497802734375,144.07278442382812,-480.05010986328125
313309.93735815724,238.04364013671875,-186.62875366210938,-206.5952911376953,-335.80047607421875,129.1632080078125,292.075927734375,144.5614013671875,-479.6469421386719
313309.9413581572,240.1619415283203,-184.27114868164062,-204.3001251220703,-333.4918212890625,131.41390991210938,294.41656494140625,146.91651916503906,-477.4836730957031
313309.9453581572,240.8943634033203,-183.70909118652344,-203.78353881835938,-333.1111145019531,132.11085510253906,295.04205322265625,147.56100463867188,-476.95709228515625
313309.94935815723,239.2801513671875,-185.53163146972656,-205.611572265625,-335.0595703125,130.53411865234375,293.4718017578125,145.72695922851562,-478.7271728515625
313309.95335815725,237.25477600097656,-187.66842651367188,-207.77235412597656,-337.2323303222656,128.4068145751953,291.37548828125,143.56069946289062,-480.7785339355469
313309.9573581572,237.51705932617188,-186.83358764648438,-207.00296020507812,-336.3730163574219,128.88743591308594,291.75469970703125,144.1107635498047,-479.9306945800781
313309.9613581572,239.79473876953125,-184.22317504882812,-204.41152954101562,-333.7391052246094,131.28302001953125,294.0213623046875,146.6272430419922,-477.3477783203125
313309.96535815723,240.49069213867188,-183.66912841796875,-203.86097717285156,-333.1945495605469,131.99644470214844,294.8232421875,147.16232299804688,-476.7677307128906
313309.96935815725,239.12677001953125,-185.21888732910156,-205.4477081298828,-334.8297424316406,130.4961395263672,293.271484375,145.6280517578125,-478.27154541015625
313309.9733581572,237.23228454589844,-187.1688232421875,-207.30223083496094,-336.6602783203125,128.54721069335938,291.3060607910156,143.63912963867188,-480.02313232421875
313309.9773581572,237.41714477539062,-186.55880737304688,-206.65174865722656,-335.8699035644531,128.88943481445312,291.5513610839844,144.07427978515625,-479.4526062011719
313309.98135815724,239.77325439453125,-184.08578491210938,-204.14724731445312,-333.2015380859375,131.28750610351562,294.00189208984375,146.54730224609375,-477.1014709472656
313309.98535815725,240.32081604003906,-183.75155639648438,-203.8150177001953,-332.86181640625,131.74765014648438,294.4095764160156,146.94749450683594,-476.7437438964844
313309.9893581572,238.9279327392578,-185.4307098388672,-205.4891815185547,-334.62890625,130.2753143310547,292.9872131347656,145.34127807617188,-478.3160095214844
313309.9933581572,237.32872009277344,-187.3626708984375,-207.3646697998047,-336.59881591796875,128.4822540283203,291.3485107421875,143.57469177246094,-480.19049072265625
313309.99735815724,237.7518768310547,-186.538330078125,-206.59228515625,-335.760009765625,129.09326171875,291.97650146484375,144.24415588378906,-479.529541015625
313310.0013581572,240.04104614257812,-183.97137451171875,-204.04832458496094,-333.1540832519531,131.51283264160156,294.3486022949219,146.75015258789062,-477.1094665527344
313310.0053581572,240.5871124267578,-183.61566162109375,-203.6806182861328,-332.8463439941406,131.9324951171875,294.6443786621094,147.19578552246094,-476.68731689453125
313310.00935815723,239.4130401611328,-185.137451171875,-205.1854248046875,-334.4360656738281,130.55709838867188,293.27197265625,145.8253936767578,-478.1181640625
313310.01335815724,237.70791625976562,-187.2262725830078,-207.2137908935547,-336.4969177246094,128.59866333007812,291.2855529785156,143.88394165039062,-480.2024841308594
313310.0173581572,238.2674560546875,-186.3694610595703,-206.3494873046875,-335.5411682128906,129.405517578125,292.23529052734375,144.62783813476562,-479.5245361328125
313310.0213581572,240.39076232910156,-183.9434051513672,-203.95790100097656,-333.0891418457031,131.68618774414062,294.57843017578125,146.9989471435547,-477.2118835449219
313310.0253581572,240.7110137939453,-183.70509338378906,-203.7710418701172,-333.01568603515625,131.9359893798828,294.6888427734375,147.28271484375,-476.9181213378906
313310.0293581572,239.4545135498047,-185.17391967773438,-205.23538208007812,-334.56195068359375,130.50213623046875,293.20751953125,145.88633728027344,-478.2135925292969
313310.0333581572,237.56402587890625,-187.03143310546875,-207.14035034179688,-336.54937744140625,128.78150939941406,291.55584716796875,143.8739471435547,-480.0146484375
313310.0373581572,237.8922576904297,-186.2240753173828,-206.36846923828125,-335.72601318359375,129.44598388671875,292.21282958984375,144.50344848632812,-479.3002014160156
313310.0413581572,239.95262145996094,-183.86846923828125,-204.059814453125,-333.38140869140625,131.58877563476562,294.296142578125,146.84556579589844,-476.9805603027344
313310.0453581572,240.55213928222656,-183.2389678955078,-203.48477172851562,-332.7953796386719,132.14633178710938,294.82122802734375,147.3976287841797,-476.2101745605469
313310.0493581572,239.22918701171875,-184.67431640625,-204.95559692382812,-334.2607116699219,130.80189514160156,293.45281982421875,145.8148956298828,-477.48516845703125
313310.0533581572,237.2252960205078,-186.94749450683594,-207.16383361816406,-336.5133972167969,128.5901641845703,291.2610778808594,143.60916137695312,-479.6494445800781
313310.0573581572,237.38316345214844,-186.46739196777344,-206.65174865722656,-335.91339111328125,128.87643432617188,291.5458679199219,144.04380798339844,-479.2647399902344
313310.0613581572,239.6983184814453,-184.00535583496094,-204.14474487304688,-333.33294677734375,131.2570343017578,293.9519348144531,146.57229614257812,-476.95159912109375
313310.0653581572,240.19442749023438,-183.7725372314453,-203.88446044921875,-333.09912109375,131.63174438476562,294.3186340332031,146.91551208496094,-476.6698303222656
313310.0693581572,238.864990234375,-185.43421936035156,-205.55361938476562,-334.80426025390625,130.1359405517578,292.8228454589844,145.31678771972656,-478.2785339355469
313310.0733581572,237.04693603515625,-187.44309997558594,-207.54852294921875,-336.8876037597656,128.23394775390625,290.8968811035156,143.30239868164062,-480.30340576171875
313310.0773581572,237.69142150878906,-186.29351806640625,-206.41043090820312,-335.59661865234375,129.22816467285156,291.8835754394531,144.19668579101562,-479.29620361328125
313310.0813581572,240.0580291748047,-183.64414978027344,-203.74757385253906,-332.796875,131.76663208007812,294.4690246582031,146.71766662597656,-476.7167663574219
313310.08535815723,240.42922973632812,-183.46078491210938,-203.53173828125,-332.6824645996094,131.96397399902344,294.51348876953125,147.0054473876953,-476.36956787109375
313310.0893581572,239.10928344726562,-185.07049560546875,-205.11647033691406,-334.3286437988281,130.50714111328125,293.0286560058594,145.44468688964844,-477.8448791503906
313310.0933581572,237.39315795898438,-186.96148681640625,-206.99546813964844,-336.13970947265625,128.70407104492188,291.4199523925781,143.4947509765625,-479.7008972167969
313310.0973581572,237.85128784179688,-186.17462158203125,-206.21359252929688,-335.2164306640625,129.30760192871094,292.0199890136719,144.14022827148438,-479.08489990234375
313310.1013581572,240.17742919921875,-183.54421997070312,-203.68312072753906,-332.6300048828125,131.73416137695312,294.2791748046875,146.7081756591797,-476.5928649902344
313310.1053581572,240.40126037597656,-183.5567169189453,-203.72857666015625,-332.8008728027344,131.81309509277344,294.39556884765625,146.85206604003906,-476.5758972167969
313310.1093581572,239.22320556640625,-185.255859375,-205.3582763671875,-334.4610290527344,130.30479431152344,293.08013916015625,145.43569946289062,-478.1995849609375
313310.1133581572,237.8597869873047,-186.84507751464844,-206.8670654296875,-335.9878234863281,128.8214874267578,291.6382751464844,143.88194274902344,-479.76483154296875
313310.1173581572,238.2864532470703,-185.95230102539062,-205.97828674316406,-335.0101013183594,129.54690551757812,292.2662658691406,144.60736083984375,-478.96649169921875
313310.1213581572,240.11248779296875,-183.83749389648438,-203.83099365234375,-332.85430908203125,131.5338134765625,294.13128662109375,146.76063537597656,-476.8207092285156
313310.12535815715,240.60609436035156,-183.29641723632812,-203.37786865234375,-332.5290832519531,132.14732360839844,294.7273254394531,147.2037811279297,-476.24017333984375
313310.12935815717,239.40255737304688,-184.6058807373047,-204.75726318359375,-334.0193786621094,130.8638458251953,293.4288635253906,145.79042053222656,-477.4407043457031
313310.1333581572,237.66793823242188,-186.56581115722656,-206.67172241210938,-335.9803161621094,128.9259033203125,291.5808410644531,143.8539581298828,-479.2677307128906
313310.1373581572,237.86428833007812,-185.96278381347656,-206.09869384765625,-335.3093566894531,129.37353515625,292.1018981933594,144.34906005859375,-478.8125915527344
313310.14135815715,240.02854919433594,-183.44480895996094,-203.62916564941406,-332.82733154296875,131.67919921875,294.2891540527344,146.8355712890625,-476.33709716796875
313310.14535815717,240.481689453125,-183.1315460205078,-203.2869415283203,-332.49859619140625,132.06689453125,294.6853332519531,147.20278930664062,-475.9264221191406
313310.1493581572,239.20172119140625,-184.76124572753906,-204.86666870117188,-334.058349609375,130.6285400390625,293.3379211425781,145.67401123046875,-477.4566955566406
313310.1533581572,237.49807739257812,-186.6517333984375,-206.7461700439453,-335.91436767578125,128.8434600830078,291.6377868652344,143.780029296875,-479.3431701660156
313310.15735815716,237.7908477783203,-185.85337829589844,-205.98777770996094,-335.09503173828125,129.35055541992188,292.0764465332031,144.42201232910156,-478.62176513671875
313310.1613581572,239.94212341308594,-183.34988403320312,-203.51174926757812,-332.635986328125,131.7601318359375,294.4615173339844,146.83807373046875,-476.2281799316406
313310.1653581572,240.73898315429688,-182.8442840576172,-202.97618103027344,-332.1274108886719,132.38414001464844,295.0780334472656,147.41860961914062,-475.7145690917969
313310.1693581572,239.3126220703125,-184.63885498046875,-204.7417755126953,-333.8565368652344,130.75343322753906,293.4133605957031,145.7179718017578,-477.4117126464844
313310.17335815716,237.53604125976562,-186.5353240966797,-206.65924072265625,-335.7994689941406,128.83547973632812,291.4839172363281,143.78501892089844,-479.17730712890625
313310.1773581572,237.86279296875,-185.71348571777344,-205.90634155273438,-335.06756591796875,129.4110107421875,291.9555358886719,144.4235076904297,-478.4758605957031
313310.1813581572,239.95462036132812,-183.34388732910156,-203.55421447753906,-332.6629638671875,131.5627899169922,294.0953063964844,146.75814819335938,-476.1607360839844
313310.1853581572,240.52865600585938,-182.94171142578125,-203.12606811523438,-332.2427978515625,131.97645568847656,294.50848388671875,147.1833038330078,-475.6416320800781
313310.18935815716,239.22769165039062,-184.64883422851562,-204.77474975585938,-334.00390625,130.32078552246094,292.8158264160156,145.6575164794922,-477.19940185546875
313310.1933581572,237.52206420898438,-186.55081176757812,-206.6422576904297,-335.9668273925781,128.5417022705078,291.0642395019531,143.82249450683594,-479.0738830566406
313310.1973581572,237.7953338623047,-185.88734436035156,-206.00376892089844,-335.286376953125,129.06729125976562,291.5493469238281,144.3645477294922,-478.5927734375
313310.2013581572,240.0970001220703,-183.34637451171875,-203.50875854492188,-332.7124328613281,131.62924194335938,294.2641906738281,146.82359313964844,-476.2846374511719
313310.20535815717,240.8498992919922,-182.92822265625,-203.0431365966797,-332.2578125,132.22625732421875,294.9366455078125,147.37315368652344,-475.8539733886719
313310.2093581572,239.6603546142578,-184.5269317626953,-204.5933837890625,-333.8730163574219,130.80490112304688,293.5097961425781,145.93380737304688,-477.3147888183594
313310.2133581572,238.05413818359375,-186.31201171875,-206.3689727783203,-335.7210388183594,129.0962677001953,291.8725891113281,144.14022827148438,-479.0004577636719
313310.2173581572,238.51376342773438,-185.33029174804688,-205.45120239257812,-334.682373046875,129.77821350097656,292.5230712890625,144.85166931152344,-478.1111755371094
313310.2213581572,240.50418090820312,-183.01914978027344,-203.1600341796875,-332.35772705078125,131.82008361816406,294.4450378417969,147.11285400390625,-475.8489685058594
313310.2253581572,240.8963623046875,-182.7903289794922,-202.90374755859375,-332.17535400390625,132.1133575439453,294.71331787109375,147.4081268310547,-475.478271484375
313310.2293581572,239.6898193359375,-184.25315856933594,-204.33010864257812,-333.6097106933594,130.86184692382812,293.55474853515625,145.93380737304688,-476.8466796875
313310.2333581572,238.0601348876953,-186.0986785888672,-206.14364624023438,-335.48870849609375,128.9693603515625,291.5383605957031,144.14923095703125,-478.6292419433594
313310.23735815723,238.35240173339844,-185.52664184570312,-205.5341339111328,-334.8107604980469,129.3065948486328,291.7941589355469,144.75474548339844,-478.129638671875
313310.2413581572,240.3682861328125,-183.13204956054688,-203.1670379638672,-332.3602294921875,131.7741241455078,294.3476257324219,147.02642822265625,-475.84698486328125
313310.2453581572,241.1096954345703,-182.48507690429688,-202.59498596191406,-331.8271484375,132.48455810546875,295.03057861328125,147.63194274902344,-475.23846435546875
313310.2493581572,239.9356231689453,-184.11326599121094,-204.19570922851562,-333.4593505859375,131.04470825195312,293.5897216796875,146.16162109375,-476.8316955566406
313310.25335815724,238.16404724121094,-186.10118103027344,-206.12966918945312,-335.39678955078125,129.16571044921875,291.838134765625,144.22715759277344,-478.7741394042969
313310.2573581572,238.74957275390625,-185.19540405273438,-205.23287963867188,-334.338623046875,129.94158935546875,292.6479797363281,145.0105438232422,-478.0422058105469
313310.2613581572,240.75547790527344,-182.99217224121094,-203.04812622070312,-332.1124267578125,131.95448303222656,294.5174865722656,147.21478271484375,-475.9374084472656
313310.2653581572,240.97479248046875,-182.91073608398438,-202.9447021484375,-332.0894470214844,132.0154266357422,294.5074768066406,147.43260192871094,-475.7205810546875
313310.26935815724,239.65635681152344,-184.58738708496094,-204.59938049316406,-333.75909423828125,130.6390380859375,293.2460021972656,145.86634826660156,-477.33978271484375
313310.27335815725,238.12107849121094,-186.39044189453125,-206.40493774414062,-335.6300964355469,129.07627868652344,291.8021545410156,144.14022827148438,-479.1897888183594
313310.2773581572,238.62118530273438,-185.4552001953125,-205.5631103515625,-334.77777099609375,129.92210388183594,292.7124328613281,144.9605712890625,-478.4728698730469
313310.2813581572,240.76646423339844,-183.07958984375,-203.23696899414062,-332.4191589355469,132.18328857421875,294.9801025390625,147.3037109375,-476.2052001953125
313310.28535815724,241.17164611816406,-182.99465942382812,-203.10008239746094,-332.3452453613281,132.33717346191406,295.0980224609375,147.57199096679688,-476.02032470703125
313310.28935815726,239.67984008789062,-184.835693359375,-204.91213989257812,-334.26519775390625,130.60755920410156,293.3843994140625,145.92630004882812,-477.74896240234375
313310.2933581572,238.10159301757812,-186.6192626953125,-206.6372528076172,-336.0467834472656,129.00033569335938,291.91705322265625,144.19369506835938,-479.50604248046875
313310.29735815723,238.63616943359375,-185.67701721191406,-205.69601440429688,-335.03057861328125,129.73025512695312,292.5750427246094,145.00204467773438,-478.67919921875
313310.30135815724,240.64706420898438,-183.3523712158203,-203.39535522460938,-332.6205139160156,131.90602111816406,294.7497863769531,147.1877899169922,-476.4195251464844
313310.30535815726,241.03524780273438,-183.05661010742188,-203.09559631347656,-332.3587341308594,132.3131866455078,295.1309814453125,147.4365997314453,-476.05230712890625
313310.3093581572,239.78924560546875,-184.60137939453125,-204.60838317871094,-333.9299621582031,130.8728485107422,293.75958251953125,145.9228057861328,-477.50164794921875
313310.31335815723,237.9437255859375,-186.54632568359375,-206.5847930908203,-335.9963073730469,128.93089294433594,291.8271179199219,143.94439697265625,-479.422119140625
313310.31735815725,238.46031188964844,-185.63404846191406,-205.718994140625,-335.0715637207031,129.64932250976562,292.5240783691406,144.7322540283203,-478.68670654296875
313310.32135815726,240.5371551513672,-183.3563690185547,-203.4597930908203,-332.7499084472656,131.797607421875,294.6094055175781,146.9504852294922,-476.5059509277344
313310.3253581572,240.7564697265625,-183.2284698486328,-203.3643798828125,-332.71392822265625,131.9290008544922,294.6298828125,147.08737182617188,-476.25714111328125
313310.32935815724,239.68382263183594,-184.76824951171875,-204.82020568847656,-334.14727783203125,130.5186309814453,293.3669128417969,145.74945068359375,-477.64105224609375
313310.33335815725,238.1160888671875,-186.56930541992188,-206.57879638671875,-335.9443664550781,128.845458984375,291.8371276855469,144.02383422851562,-479.4156188964844
313310.33735815727,238.49777221679688,-185.68751525878906,-205.71499633789062,-335.0155944824219,129.53541564941406,292.45013427734375,144.74725341796875,-478.6507263183594
313310.3413581572,240.6830291748047,-183.284423828125,-203.33389282226562,-332.5450744628906,131.90850830078125,294.9056701660156,147.11935424804688,-476.4030456542969
313310.34535815724,241.20811462402344,-183.02513122558594,-203.089599609375,-332.34771728515625,132.34866333007812,295.2993469238281,147.46607971191406,-476.13623046875
313310.34935815725,239.79873657226562,-184.8231964111328,-204.84169006347656,-334.1882629394531,130.69947814941406,293.6906433105469,145.76992797851562,-477.84088134765625
313310.35335815727,238.13656616210938,-186.65573120117188,-206.6652374267578,-336.041259765625,128.8739471435547,291.8805847167969,143.9938507080078,-479.6279602050781
313310.3573581572,238.2704620361328,-185.84288024902344,-205.95130920410156,-335.2604064941406,129.4199981689453,292.2472839355469,144.55740356445312,-478.8990478515625
313310.36135815724,240.3488006591797,-183.38784790039062,-203.5477294921875,-332.7589111328125,131.8535614013672,294.73980712890625,146.8570556640625,-476.5459289550781
313310.36535815726,240.80393981933594,-183.348876953125,-203.50726318359375,-332.700439453125,132.01243591308594,294.9086608886719,147.0543975830078,-476.48345947265625
313310.3693581573,239.6228790283203,-184.96759033203125,-205.12547302246094,-334.359619140625,130.57508850097656,293.5517578125,145.58407592773438,-478.0697021484375
313310.3733581573,238.02316284179688,-186.7052001953125,-206.8485870361328,-336.14569091796875,128.9438934326172,292.03497314453125,143.83297729492188,-479.82330322265625
313310.37735815725,238.48379516601562,-185.891845703125,-206.01974487304688,-335.2923889160156,129.65182495117188,292.6699523925781,144.59237670898438,-479.1273498535156
313310.38135815726,240.59710693359375,-183.45928955078125,-203.66513061523438,-332.9272766113281,132.05389404296875,294.99609375,146.93649291992188,-476.9106140136719
313310.3853581573,241.02674865722656,-183.21298217773438,-203.39584350585938,-332.6859436035156,132.3636474609375,295.2813720703125,147.250244140625,-476.576904296875
313310.3893581573,239.81922912597656,-184.79571533203125,-204.8816680908203,-334.15478515625,130.87533569335938,293.81903076171875,145.73046875,-477.9882507324219
313310.39335815725,238.2649688720703,-186.40643310546875,-206.47938537597656,-335.7769775390625,129.3280792236328,292.269775390625,144.04530334472656,-479.5909729003906
313310.39735815726,238.7111053466797,-185.4856719970703,-205.6135711669922,-334.8452453613281,129.9465789794922,292.8103332519531,144.81919860839844,-478.78863525390625
313310.4013581573,240.64805603027344,-183.29641723632812,-203.4702911376953,-332.6510009765625,132.02442932128906,294.834228515625,146.98446655273438,-476.6893005371094
313310.4053581573,241.03724670410156,-183.0870819091797,-203.27745056152344,-332.5775451660156,132.45758056640625,295.16845703125,147.23776245117188,-476.4639892578125
313310.40935815725,239.79473876953125,-184.74127197265625,-204.89065551757812,-334.2821960449219,130.85435485839844,293.4858093261719,145.75344848632812,-477.9687805175781
313310.41335815727,238.3229217529297,-186.39195251464844,-206.4913787841797,-335.9498596191406,129.2511444091797,291.91455078125,144.18020629882812,-479.5460205078125
313310.4173581573,238.90396118164062,-185.3817596435547,-205.4876708984375,-334.8387451171875,130.3052978515625,293.23199462890625,145.0015411376953,-478.71917724609375
313310.42135815724,240.9143524169922,-183.22947692871094,-203.35838317871094,-332.6150207519531,132.33168029785156,295.32684326171875,147.1942901611328,-476.7023010253906
313310.42535815726,241.4139404296875,-183.00814819335938,-203.1635284423828,-332.4906005859375,132.6708984375,295.6460876464844,147.5500030517578,-476.4894714355469
313310.4293581573,239.99757385253906,-184.78622436523438,-204.9141387939453,-334.30865478515625,131.05718994140625,294.0054016113281,145.8783416748047,-478.19708251953125
313310.4333581573,238.49478149414062,-186.484375,-206.57281494140625,-336.0332946777344,129.41050720214844,292.3941650390625,144.25863647460938,-479.8472900390625
313310.43735815724,239.14576721191406,-185.39373779296875,-205.51416015625,-334.9026794433594,130.24684143066406,293.22100830078125,145.18389892578125,-478.8330993652344
313310.44135815726,240.89935302734375,-183.2319793701172,-203.4488067626953,-332.7793884277344,132.35716247558594,295.2348937988281,147.12783813476562,-476.79522705078125
313310.4453581573,241.08421325683594,-183.18850708007812,-203.40933227539062,-332.7589111328125,132.50804138183594,295.2928466796875,147.16281127929688,-476.6653137207031
313310.4493581573,240.072021484375,-184.53543090820312,-204.7093048095703,-334.0628662109375,131.17160034179688,294.0168762207031,145.90232849121094,-477.8423767089844
313310.45335815725,238.51626586914062,-186.1631317138672,-206.29103088378906,-335.630615234375,129.48045349121094,292.3357238769531,144.22715759277344,-479.336669921875
313310.45735815726,238.92543029785156,-185.32730102539062,-205.44520568847656,-334.7103271484375,130.0230255126953,292.8178405761719,144.98255920410156,-478.5592956542969
313310.4613581573,240.81143188476562,-183.1815185546875,-203.3129119873047,-332.5115966796875,131.9989471435547,294.7622985839844,147.06239318847656,-476.4465026855469
313310.4653581573,240.99928283691406,-183.2119903564453,-203.33839416503906,-332.5545654296875,132.013427734375,294.7757873535156,147.1228485107422,-476.3680725097656
313310.46935815725,240.09750366210938,-184.5039520263672,-204.58340454101562,-333.7925720214844,130.77342224121094,293.62469482421875,146.00125122070312,-477.4926452636719
313310.47335815727,238.48928833007812,-186.21009826660156,-206.25955200195312,-335.56365966796875,129.08328247070312,291.9530334472656,144.32508850097656,-479.120849609375
313310.4773581573,239.13027954101562,-185.1504364013672,-205.21939086914062,-334.41558837890625,129.9800567626953,292.8772888183594,145.27232360839844,-478.2080993652344
313310.4813581573,240.9053497314453,-183.21548461914062,-203.27044677734375,-332.47064208984375,131.77662658691406,294.619384765625,147.26373291015625,-476.3260803222656
313310.48535815725,241.03775024414062,-183.3253936767578,-203.35787963867188,-332.6774597167969,131.71617126464844,294.4939880371094,147.27073669433594,-476.34307861328125
313310.48935815727,239.88067626953125,-184.81320190429688,-204.80572509765625,-334.1827697753906,130.37623596191406,293.18505859375,145.87684631347656,-477.72747802734375
313310.4933581573,238.32591247558594,-186.4703826904297,-206.4379119873047,-335.8539123535156,128.69358825683594,291.4284362792969,144.22166442871094,-479.30621337890625
313310.49735815724,238.7755584716797,-185.44020080566406,-205.42922973632812,-334.7518005371094,129.63633728027344,292.37969970703125,144.99655151367188,-478.43841552734375
313310.50135815726,240.78794860839844,-183.05860900878906,-203.09109497070312,-332.3567199707031,131.797607421875,294.3691101074219,147.2362518310547,-476.060302734375
313310.5053581573,241.14315795898438,-182.9012451171875,-202.90774536132812,-332.1813659667969,131.93649291992188,294.4340515136719,147.40261840820312,-475.7625427246094
313310.5093581573,239.95111083984375,-184.25465393066406,-204.318603515625,-333.55126953125,130.88133239746094,293.52178955078125,145.89883422851562,-477.1114501953125
313310.51335815724,238.3448944091797,-185.86585998535156,-205.97479248046875,-335.1479797363281,129.3375701904297,291.99798583984375,144.16122436523438,-478.7091979980469
313310.51735815726,238.9694061279297,-184.84518432617188,-204.98707580566406,-334.09332275390625,130.1654052734375,292.8023376464844,145.12794494628906,-477.8094177246094
313310.5213581573,240.5441436767578,-183.0396270751953,-203.20449829101562,-332.27728271484375,131.95896911621094,294.7687683105469,146.97695922851562,-476.1322326660156
313310.52535815723,240.87637329101562,-183.15902709960938,-203.2604522705078,-332.3652038574219,132.03192138671875,294.9146728515625,147.13583374023438,-476.1911926269531
313310.52935815725,239.63636779785156,-184.7907257080078,-204.8861541748047,-334.12579345703125,130.47816467285156,293.3359375,145.6964874267578,-477.7204895019531
313310.53335815726,238.08460998535156,-186.2545623779297,-206.39694213867188,-335.66607666015625,128.7965087890625,291.56982421875,144.1112518310547,-479.0324401855469
313310.5373581573,238.59719848632812,-185.1299591064453,-205.27035522460938,-334.4145812988281,129.70477294921875,292.45062255859375,144.94859313964844,-477.8973388671875
313310.54135815724,240.51516723632812,-182.95669555664062,-203.11207580566406,-332.1923522949219,131.88653564453125,294.63238525390625,147.01344299316406,-475.8320007324219
313310.54535815725,240.57411193847656,-183.24195861816406,-203.39984130859375,-332.5780334472656,131.71966552734375,294.36810302734375,146.88504028320312,-476.10577392578125
313310.54935815727,239.36257934570312,-184.85816955566406,-204.99606323242188,-334.25469970703125,130.30780029296875,293.0501403808594,145.40322875976562,-477.6650085449219
313310.5533581573,238.10508728027344,-186.1486358642578,-206.20510864257812,-335.3988037109375,128.9438934326172,291.7856750488281,143.96986389160156,-478.8076171875
313310.55735815724,238.67613220214844,-185.1249542236328,-205.19140625,-334.3686218261719,129.83767700195312,292.6379699707031,144.81369018554688,-477.9413146972656
313310.56135815725,240.62307739257812,-183.1820068359375,-203.29542541503906,-332.527099609375,131.819091796875,294.6343994140625,146.8760528564453,-476.25714111328125
313310.56535815727,240.90435791015625,-183.34637451171875,-203.46080017089844,-332.7748718261719,131.85655212402344,294.6333923339844,146.97946166992188,-476.47998046875
313310.5693581573,239.78074645996094,-184.85816955566406,-204.9291229248047,-334.251220703125,130.58506774902344,293.4923095703125,145.61904907226562,-477.96478271484375
313310.57335815724,238.33340454101562,-186.36346435546875,-206.4034423828125,-335.7375183105469,129.10125732421875,292.01849365234375,144.0637969970703,-479.4236145019531
313310.57735815726,238.8759765625,-185.31130981445312,-205.34779357910156,-334.5689392089844,129.9261016845703,292.7474060058594,144.9281005859375,-478.39593505859375
313310.5813581573,240.69252014160156,-183.1255645751953,-203.18951416015625,-332.4046936035156,131.8280792236328,294.4960021972656,147.0853729248047,-476.1562194824219
313310.5853581573,240.8638916015625,-183.03863525390625,-203.10708618164062,-332.4051818847656,131.8215789794922,294.38458251953125,147.17031860351562,-475.90643310546875
313310.58935815725,239.58790588378906,-184.6613311767578,-204.7632598876953,-334.07635498046875,130.37124633789062,293.0516662597656,145.623046875,-477.4916687011719
313310.59335815726,237.99368286132812,-186.4219207763672,-206.55581665039062,-335.8948974609375,128.76004028320312,291.5888366699219,143.92291259765625,-479.3311767578125
313310.5973581573,238.58470153808594,-185.5601043701172,-205.69601440429688,-334.963134765625,129.57337951660156,292.56353759765625,144.78521728515625,-478.62176513671875
313310.60135815723,240.4921875,-183.5372314453125,-203.7275848388672,-333.0226745605469,131.60525512695312,294.5314636230469,146.8765411376953,-476.7347717285156
313310.60535815725,240.80442810058594,-183.44129943847656,-203.6806182861328,-333.0841369628906,131.95547485351562,294.9476318359375,147.05990600585938,-476.68829345703125
313310.60935815726,239.44651794433594,-185.0025634765625,-205.3043212890625,-334.80975341796875,130.66351318359375,293.6831359863281,145.51263427734375,-478.25604248046875
313310.6133581573,237.852294921875,-186.72767639160156,-207.03793334960938,-336.6068115234375,128.96636962890625,291.8865966796875,143.8264923095703,-479.9596862792969
313310.61735815724,238.61817932128906,-185.67352294921875,-205.94981384277344,-335.46124267578125,129.90562438964844,292.85382080078125,144.8546600341797,-479.0574035644531
313310.62135815725,240.57911682128906,-183.48426818847656,-203.7975311279297,-333.2594909667969,131.97845458984375,294.8702087402344,147.01942443847656,-476.9346008300781
313310.6253581572,240.64955139160156,-183.33639526367188,-203.66163635253906,-333.14459228515625,132.02491760253906,294.7792663574219,147.06588745117188,-476.5893859863281
313310.6293581572,239.27415466308594,-185.02703857421875,-205.28883361816406,-334.77679443359375,130.38172912597656,293.16656494140625,145.4376983642578,-478.086669921875
313310.63335815724,237.9192352294922,-186.64674377441406,-206.87306213378906,-336.32354736328125,128.8524627685547,291.7696838378906,143.91941833496094,-479.67291259765625
313310.63735815726,238.71560668945312,-185.51564025878906,-205.76345825195312,-335.1365051269531,129.85964965820312,292.8038635253906,144.98855590820312,-478.7052001953125
313310.6413581572,240.62657165527344,-183.37686157226562,-203.65264892578125,-332.99072265625,131.8390655517578,294.7757873535156,147.13833618164062,-476.6333312988281
313310.6453581572,240.82791137695312,-183.31790161132812,-203.54322814941406,-332.8887939453125,131.93399047851562,294.86968994140625,147.23275756835938,-476.4320068359375
313310.64935815724,239.7023162841797,-184.7227783203125,-204.90713500976562,-334.27618408203125,130.57508850097656,293.519287109375,145.91531372070312,-477.6835021972656
313310.65335815726,238.12657165527344,-186.4593963623047,-206.5648193359375,-335.96234130859375,128.9014129638672,291.7746887207031,144.2671356201172,-479.314208984375
313310.6573581572,238.4957733154297,-185.54612731933594,-205.68601989746094,-335.05755615234375,129.56788635253906,292.34771728515625,144.98605346679688,-478.4828796386719
313310.66135815723,240.4007568359375,-183.33688354492188,-203.5567169189453,-332.8828125,131.6217498779297,294.41705322265625,147.05039978027344,-476.4120178222656
313310.66535815725,240.6185760498047,-183.33688354492188,-203.5552215576172,-332.9532470703125,131.79710388183594,294.5164794921875,147.14532470703125,-476.3825378417969
313310.6693581572,239.26266479492188,-185.00355529785156,-205.2053985595703,-334.68536376953125,130.2653350830078,292.97021484375,145.5765838623047,-477.9907531738281
313310.6733581572,238.02615356445312,-186.4573974609375,-206.59579467773438,-336.13720703125,128.8054962158203,291.4609375,144.17120361328125,-479.39813232421875
313310.67735815723,238.7435760498047,-185.40623474121094,-205.4931640625,-335.0330810546875,129.75672912597656,292.3547058105469,145.159423828125,-478.45037841796875
313310.68135815725,240.82691955566406,-183.21548461914062,-203.25296020507812,-332.635986328125,131.8480682373047,294.6148986816406,147.37664794921875,-476.29510498046875
313310.6853581572,241.10569763183594,-183.10707092285156,-203.12506103515625,-332.4796142578125,132.06138610839844,294.8197326660156,147.54151916503906,-476.1082763671875
313310.6893581572,239.62237548828125,-184.70579528808594,-204.74826049804688,-334.13629150390625,130.62254333496094,293.390869140625,145.87384033203125,-477.6375427246094
313310.69335815724,238.33840942382812,-186.17662048339844,-206.2095947265625,-335.544677734375,129.15321350097656,292.0879211425781,144.39952087402344,-479.1318359375
313310.69735815725,238.98388671875,-185.19790649414062,-205.26036071777344,-334.45904541015625,129.9410858154297,292.86181640625,145.23886108398438,-478.3135070800781
313310.7013581572,240.98529052734375,-182.9746856689453,-203.1090850830078,-332.27679443359375,132.18728637695312,295.01959228515625,147.37315368652344,-476.2721252441406
313310.7053581572,240.90835571289062,-183.24795532226562,-203.44131469726562,-332.7598876953125,132.05389404296875,294.7657775878906,147.12783813476562,-476.6048583984375
313310.70935815724,239.53494262695312,-184.922119140625,-205.13145446777344,-334.5304870605469,130.5635986328125,293.2784729003906,145.5601043701172,-478.2490539550781
313310.71335815726,238.18502807617188,-186.46588134765625,-206.6802215576172,-336.0572509765625,129.1307373046875,291.9525451660156,144.04132080078125,-479.7983093261719
313310.7173581572,238.9589080810547,-185.30032348632812,-205.56710815429688,-334.8817138671875,130.16390991210938,292.9257507324219,145.06898498535156,-478.7876281738281
313310.7213581572,240.93133544921875,-183.22998046875,-203.5082550048828,-332.79437255859375,132.28221130371094,295.1109924316406,147.1887969970703,-476.8586730957031
313310.7253581572,240.9538116455078,-183.41082763671875,-203.67213439941406,-332.94476318359375,132.185791015625,295.0120849609375,147.07139587402344,-476.8961486816406
313310.7293581572,239.43902587890625,-185.11895751953125,-205.34878540039062,-334.5759582519531,130.5660858154297,293.4613342285156,145.3717498779297,-478.3869323730469
313310.7333581572,237.96420288085938,-186.6547393798828,-206.85658264160156,-336.0332946777344,128.9438934326172,291.8431091308594,143.844970703125,-479.7793273925781
313310.73735815723,238.85598754882812,-185.32879638671875,-205.5416259765625,-334.6239013671875,130.04150390625,292.872802734375,145.052001953125,-478.4998474121094
313310.7413581572,240.64805603027344,-183.17202758789062,-203.42832946777344,-332.47711181640625,131.9574737548828,294.5959167480469,147.06939697265625,-476.3226013183594
313310.7453581572,240.48318481445312,-183.3249053955078,-203.5832061767578,-332.5765380859375,131.63523864746094,294.2057189941406,146.81210327148438,-476.2441711425781
313310.7493581572,239.20172119140625,-184.84068298339844,-205.0545196533203,-333.9839172363281,130.18289184570312,292.8608093261719,145.2868194580078,-477.60955810546875
313310.75335815724,237.8607940673828,-186.3155059814453,-206.473388671875,-335.4222717285156,128.72755432128906,291.406982421875,143.84097290039062,-479.0064392089844
313310.7573581572,238.5777130126953,-185.18191528320312,-205.3183135986328,-334.23321533203125,129.60585021972656,292.2283020019531,144.8666534423828,-477.89532470703125
313310.7613581572,240.49717712402344,-182.9911651611328,-203.12705993652344,-332.0229797363281,131.59877014160156,294.1917419433594,147.0219268798828,-475.70458984375
313310.7653581572,240.55563354492188,-183.14305114746094,-203.30792236328125,-332.3502197265625,131.53530883789062,293.93243408203125,147.00894165039062,-475.8404846191406
313310.76935815724,238.86048889160156,-185.1214599609375,-205.31781005859375,-334.4875183105469,129.65982055664062,291.97100830078125,145.15692138671875,-477.7479553222656
313310.7733581572,237.27076721191406,-186.6802215576172,-206.8665771484375,-335.9078674316406,128.19998168945312,290.94683837890625,143.3958282470703,-479.293212890625
313310.7773581572,238.1195831298828,-185.2503662109375,-205.50616455078125,-334.44354248046875,129.62184143066406,292.4161682128906,144.5059356689453,-478.0816955566406
313310.7813581572,240.4652099609375,-182.8797607421875,-203.1360626220703,-332.1249084472656,132.06039428710938,294.77825927734375,146.9829559326172,-475.9273986816406
313310.78535815724,240.94332885742188,-182.8817596435547,-203.1360626220703,-332.1988525390625,132.23825073242188,294.984619140625,147.26373291015625,-475.9833679199219
313310.7893581572,239.60240173339844,-184.7422637939453,-204.98907470703125,-334.1837463378906,130.47216796875,293.14508056640625,145.69949340820312,-477.7719421386719
313310.7933581572,237.970703125,-186.50485229492188,-206.7786407470703,-336.0557556152344,128.7715301513672,291.42645263671875,143.97286987304688,-479.5340270996094
313310.79735815723,239.05783081054688,-184.96009826660156,-205.24887084960938,-334.4255676269531,130.25584411621094,292.9912109375,145.3177947998047,-478.1681213378906
313310.8013581572,241.14915466308594,-182.7848358154297,-203.0161590576172,-332.1064147949219,132.2362518310547,294.974609375,147.56849670410156,-475.99237060546875
313310.8053581572,241.0872039794922,-183.06060791015625,-203.27545166015625,-332.31976318359375,132.01942443847656,294.74530029296875,147.38014221191406,-476.1512451171875
313310.8093581572,239.79823303222656,-184.64234924316406,-204.8441925048828,-333.9084777832031,130.6195526123047,293.3264465332031,145.82888793945312,-477.64703369140625
313310.81335815723,238.563232421875,-186.11317443847656,-206.27304077148438,-335.36383056640625,129.21217346191406,291.9660339355469,144.46397399902344,-479.10736083984375
313310.8173581572,239.52944946289062,-184.74026489257812,-204.91513061523438,-333.97393798828125,130.5531005859375,293.4643249511719,145.75393676757812,-477.8958435058594
313310.8213581572,241.48489379882812,-182.59048461914062,-202.77134704589844,-331.8506164550781,132.65541076660156,295.50567626953125,147.91171264648438,-475.78802490234375
313310.82535815716,241.70372009277344,-182.63345336914062,-202.83580017089844,-332.00250244140625,132.67689514160156,295.36181640625,147.96817016601562,-475.7850341796875
313310.8293581572,240.46670532226562,-184.24166870117188,-204.38255310058594,-333.68914794921875,131.064697265625,293.7445983886719,146.56329345703125,-477.2088928222656
313310.8333581572,239.1292724609375,-185.77293395996094,-205.81591796875,-335.0980224609375,129.57537841796875,292.4916076660156,145.15841674804688,-478.6951904296875
313310.8373581572,240.00807189941406,-184.45799255371094,-204.49847412109375,-333.6686706542969,130.67550659179688,293.5242614746094,146.3359832763672,-477.4981689453125
313310.84135815717,241.71121215820312,-182.49505615234375,-202.60098266601562,-331.7047424316406,132.4905548095703,295.17596435546875,148.2114715576172,-475.6011657714844
313310.8453581572,241.5643310546875,-182.7418670654297,-202.86328125,-331.9690246582031,132.3956298828125,295.0165710449219,147.92221069335938,-475.7380676269531
313310.8493581572,240.0830078125,-184.48995971679688,-204.52194213867188,-333.6856689453125,130.7599334716797,293.47979736328125,146.25753784179688,-477.3028259277344
313310.8533581572,238.80453491210938,-185.66253662109375,-205.7424774169922,-334.9366455078125,129.58438110351562,292.3871765136719,144.8956298828125,-478.4903564453125
313310.85735815717,239.7088165283203,-184.22068786621094,-204.34808349609375,-333.4643249511719,130.76942443847656,293.4128723144531,146.12265014648438,-477.1964111328125
313310.8613581572,241.53285217285156,-182.14483642578125,-202.30921936035156,-331.4119873046875,132.71437072753906,295.24639892578125,148.1280517578125,-475.176025390625
313310.8653581572,241.4549102783203,-182.31520080566406,-202.53353881835938,-331.751708984375,132.55599975585938,294.9836120605469,147.96717834472656,-475.27142333984375
313310.8693581572,240.1884307861328,-184.1047821044922,-204.3131103515625,-333.5467834472656,130.92030334472656,293.3808898925781,146.3719482421875,-477.03302001953125
313310.87335815723,238.85398864746094,-185.69749450683594,-205.9398193359375,-335.21044921875,129.3820343017578,291.9345397949219,144.8881378173828,-478.7366638183594
313310.8773581572,239.81771850585938,-184.40603637695312,-204.6608428955078,-333.85552978515625,130.62753295898438,293.325927734375,146.13014221191406,-477.6919860839844
313310.8813581572,241.7911376953125,-182.31520080566406,-202.6189727783203,-331.73822021484375,132.8502655029297,295.7409973144531,148.21697998046875,-475.8000183105469
313310.8853581572,242.04644775390625,-182.47857666015625,-202.7918243408203,-331.9635314941406,132.8937225341797,295.8739013671875,148.27442932128906,-475.9513854980469
313310.88935815723,240.5321502685547,-184.3475799560547,-204.6558380126953,-333.8160400390625,131.01123046875,293.9739074707031,146.52682495117188,-477.6160583496094
313310.8933581572,239.02835083007812,-185.91282653808594,-206.19810485839844,-335.2773742675781,129.39053344726562,292.3442077636719,144.9046173095703,-479.04742431640625
313310.8973581572,239.8262176513672,-184.51194763183594,-204.83470153808594,-333.7900695800781,130.57608032226562,293.51678466796875,146.07717895507812,-477.6650085449219
313310.9013581572,241.67474365234375,-182.40113830566406,-202.7203826904297,-331.6392822265625,132.52102661132812,295.3288269042969,148.18600463867188,-475.5037536621094
313310.90535815724,241.7136993408203,-182.6484375,-202.95970153808594,-332.0654602050781,132.2557373046875,294.88018798828125,148.1155548095703,-475.6066589355469
313310.9093581572,240.32931518554688,-184.3795623779297,-204.66433715820312,-333.8795166015625,130.68399047851562,293.4283447265625,146.4388885498047,-477.2613525390625
313310.9133581572,238.8509979248047,-185.82989501953125,-206.08470153808594,-335.2009582519531,129.30459594726562,292.2537841796875,144.80870056152344,-478.6932067871094
313310.91735815717,239.9051513671875,-184.2626495361328,-204.5284423828125,-333.49432373046875,130.61105346679688,293.50079345703125,146.20408630371094,-477.2273864746094
313310.9213581572,241.74917602539062,-182.4595947265625,-202.6189727783203,-331.53387451171875,132.22076416015625,295.01708984375,148.27293395996094,-475.3748474121094
313310.92535815714,241.8196258544922,-182.63595581054688,-202.80181884765625,-331.7961730957031,132.1932830810547,294.984619140625,148.14602661132812,-475.499267578125
313310.92935815715,240.59060668945312,-184.06130981445312,-204.3151092529297,-333.37139892578125,131.11764526367188,294.0218811035156,146.5797882080078,-477.030517578125
313310.93335815717,239.11727905273438,-185.66152954101562,-205.88336181640625,-334.89569091796875,129.58438110351562,292.6300048828125,144.95907592773438,-478.6527404785156
313310.9373581572,239.78274536132812,-184.5374298095703,-204.80322265625,-333.7575988769531,130.5565948486328,293.5912170410156,146.08517456054688,-477.698486328125
313310.94135815714,241.46141052246094,-182.7043914794922,-203.00216674804688,-332.0140075683594,132.30419921875,295.2833557128906,148.03712463378906,-475.9678649902344
313310.94535815716,241.7122039794922,-182.78683471679688,-203.09109497070312,-332.3002624511719,132.37364196777344,295.2503967285156,148.06610107421875,-476.06781005859375
313310.9493581572,240.4871826171875,-184.58839416503906,-204.86117553710938,-334.20574951171875,130.75343322753906,293.6181945800781,146.4503936767578,-477.8288879394531
313310.9533581572,238.8509979248047,-186.35897827148438,-206.61976623535156,-336.0182800292969,129.0143280029297,291.9210510253906,144.6962890625,-479.615966796875
313310.95735815715,239.62037658691406,-184.9381103515625,-205.2104034423828,-334.5469665527344,130.22935485839844,293.1335754394531,145.9537811279297,-478.2950134277344
313310.96135815716,241.40545654296875,-182.7973175048828,-203.1185760498047,-332.527587890625,132.2377471923828,295.0535583496094,148.05410766601562,-476.233154296875
313310.9653581572,241.66973876953125,-182.83428955078125,-203.15853881835938,-332.6669616699219,132.28172302246094,295.10302734375,148.10755920410156,-476.2056884765625
313310.9693581572,240.17593383789062,-184.8431854248047,-205.15493774414062,-334.7243347167969,130.38523864746094,293.2884521484375,146.151123046875,-478.15313720703125
313310.9733581572,238.56222534179688,-186.58929443359375,-206.9779815673828,-336.5308837890625,128.72056579589844,291.7357177734375,144.28611755371094,-479.9656677246094
313310.97735815716,239.18272399902344,-185.26034545898438,-205.7050018310547,-335.18896484375,129.94908142089844,292.92926025390625,145.40322875976562,-478.8515625
313310.9813581572,241.322021484375,-183.01414489746094,-203.4582977294922,-332.93927001953125,132.2177734375,295.18243408203125,147.74185180664062,-476.7832336425781
313310.9853581572,241.48988342285156,-183.30841064453125,-203.75906372070312,-333.31396484375,132.1048583984375,295.092529296875,147.60296630859375,-477.06549072265625
313310.9893581572,240.11598205566406,-185.07350158691406,-205.54013061523438,-335.1614685058594,130.41021728515625,293.4273376464844,145.86785888671875,-478.667724609375
313310.99335815717,238.74807739257812,-186.44290161132812,-206.861083984375,-336.51141357421875,129.03231811523438,292.0344543457031,144.4399871826172,-479.9382019042969
313310.9973581572,239.45301818847656,-184.9076385498047,-205.31980895996094,-334.9126892089844,130.32928466796875,293.197021484375,145.75294494628906,-478.4613952636719
313311.0013581572,241.15065002441406,-182.9746856689453,-203.3343963623047,-332.8093566894531,132.14633178710938,294.93914794921875,147.71636962890625,-476.46697998046875
313311.0053581572,241.54884338378906,-183.07009887695312,-203.4328155517578,-332.89178466796875,132.185791015625,295.0620422363281,147.8083038330078,-476.57489013671875
313311.0093581572,240.15245056152344,-184.98257446289062,-205.331298828125,-334.8427429199219,130.39971923828125,293.369384765625,146.02622985839844,-478.4079284667969
313311.0133581572,238.8404998779297,-186.5782928466797,-206.86508178710938,-336.3085632324219,128.82647705078125,291.87908935546875,144.47596740722656,-479.939208984375
313311.0173581572,239.55892944335938,-184.98207092285156,-205.352783203125,-334.725830078125,130.24884033203125,293.2335205078125,145.81190490722656,-478.5552978515625
313311.0213581572,241.30152893066406,-182.83828735351562,-203.2384796142578,-332.6100158691406,132.3226776123047,295.2149353027344,147.84727478027344,-476.49346923828125
313311.0253581572,241.3240203857422,-183.18051147460938,-203.58419799804688,-333.04217529296875,132.05540466308594,294.9521179199219,147.5864715576172,-476.7667541503906
313311.0293581572,240.06552124023438,-185.11846923828125,-205.4871826171875,-334.9991149902344,130.2603302001953,293.2814636230469,145.92930603027344,-478.58929443359375
313311.0333581572,238.75357055664062,-186.69320678710938,-207.04043579101562,-336.6612854003906,128.81349182128906,291.9530334472656,144.53842163085938,-480.20050048828125
313311.0373581572,239.5064697265625,-185.26634216308594,-205.63255310058594,-335.1774597167969,130.12045288085938,293.12158203125,145.7649383544922,-479.01043701171875
313311.0413581572,241.48239135742188,-182.8887481689453,-203.3234100341797,-332.7913818359375,132.38563537597656,295.232421875,147.99066162109375,-476.71728515625
313311.0453581572,241.68223571777344,-183.068603515625,-203.5717010498047,-333.08563232421875,132.27821350097656,295.093505859375,147.8877410888672,-476.8521728515625
313311.0493581572,240.14895629882812,-185.24285888671875,-205.77345275878906,-335.4097900390625,130.25733947753906,293.19952392578125,145.92381286621094,-478.97747802734375
313311.0533581572,238.71360778808594,-186.86557006835938,-207.39215087890625,-337.0519714355469,128.68759155273438,291.7507019042969,144.3315887451172,-480.56719970703125
313311.0573581572,239.2836456298828,-185.30880737304688,-205.9058380126953,-335.437744140625,129.98455810546875,292.8782958984375,145.53512573242188,-479.0923767089844
313311.0613581572,241.37747192382812,-183.0111541748047,-203.61317443847656,-333.0386657714844,132.07489013671875,294.7168273925781,147.87075805664062,-476.7647399902344
313311.0653581572,241.20310974121094,-183.64614868164062,-204.20770263671875,-333.7306213378906,131.28501892089844,293.692626953125,147.51502990722656,-477.1429443359375
313311.0693581572,239.80673217773438,-185.6820068359375,-206.2095947265625,-335.7669982910156,129.29859924316406,291.9884948730469,145.73895263671875,-479.0464172363281
313311.07335815724,238.5387420654297,-187.0789031982422,-207.6069793701172,-337.2293395996094,128.155517578125,291.0127868652344,144.31759643554688,-480.55072021484375
313311.0773581572,239.23818969726562,-185.1124725341797,-205.82591247558594,-335.29388427734375,130.3232879638672,293.14007568359375,145.54611206054688,-478.9984436035156
313311.0813581572,241.20811462402344,-182.734375,-203.45130920410156,-332.6344909667969,132.53302001953125,295.566650390625,147.71237182617188,-476.67431640625
313311.08535815723,241.46090698242188,-183.01364135742188,-203.6666259765625,-332.785888671875,132.26373291015625,295.4307556152344,147.59046936035156,-476.76123046875
313311.08935815725,240.2139129638672,-184.9490966796875,-205.58909606933594,-334.84771728515625,130.54859924316406,293.71661376953125,145.87583923339844,-478.6482238769531
313311.0933581572,238.6476593017578,-186.79112243652344,-207.42861938476562,-336.7687072753906,128.92739868164062,292.2193298339844,144.09776306152344,-480.64215087890625
313311.0973581572,239.5389404296875,-185.12545776367188,-205.79942321777344,-335.0105895996094,130.439697265625,293.8090515136719,145.56410217285156,-479.2222900390625
313311.10135815723,241.516357421875,-182.896240234375,-203.56471252441406,-332.7524108886719,132.444580078125,295.7090148925781,147.8987274169922,-477.0095520019531
313311.10535815725,241.59080505371094,-183.42431640625,-204.0078582763672,-333.2644958496094,132.00643920898438,295.3193359375,147.64593505859375,-477.3917541503906
313311.1093581572,239.97010803222656,-185.59458923339844,-206.18711853027344,-335.6271057128906,129.64382934570312,292.6484680175781,145.66001892089844,-479.3316955566406
313311.1133581572,238.0591278076172,-187.7418670654297,-208.28643798828125,-338.01519775390625,126.97895812988281,289.48748779296875,143.76953125,-481.2381591796875
313311.11735815724,238.5077667236328,-186.6062774658203,-207.07440185546875,-336.6502990722656,127.71037292480469,290.394775390625,144.8871307373047,-480.1165466308594
313311.12135815725,240.9827880859375,-183.54672241210938,-204.10728454589844,-333.37042236328125,131.6487274169922,295.1809387207031,147.42111206054688,-477.5576171875
313311.1253581572,241.67274475097656,-183.1030731201172,-203.70460510253906,-332.9272766113281,132.92269897460938,296.65826416015625,147.58447265625,-477.288818359375
313311.1293581572,240.47669982910156,-185.1824188232422,-205.62156677246094,-334.82275390625,130.80740356445312,294.4949951171875,145.85386657714844,-479.0569152832031
313311.13335815724,238.90794372558594,-186.76614379882812,-207.14735412597656,-336.363525390625,129.03530883789062,292.6539611816406,144.28262329101562,-480.4512939453125
313311.13735815726,239.5099639892578,-185.10047912597656,-205.62106323242188,-334.769287109375,130.28282165527344,293.61871337890625,145.56509399414062,-478.95098876953125
313311.1413581572,241.3509979248047,-182.97418212890625,-203.5177459716797,-332.6120300292969,132.2687225341797,295.4826965332031,147.63893127441406,-476.9156188964844
313311.1453581572,241.43142700195312,-183.4263153076172,-203.94790649414062,-333.1106262207031,131.90252685546875,295.156982421875,147.35316467285156,-477.2893371582031
313311.14935815724,239.8546905517578,-185.65902709960938,-206.13665771484375,-335.3997802734375,129.73175048828125,293.0766296386719,145.32728576660156,-479.3341979980469
313311.1533581572,238.5832061767578,-187.0609130859375,-207.4700927734375,-336.78619384765625,128.31239318847656,291.6767578125,143.98135375976562,-480.64013671875
313311.1573581572,239.2726593017578,-185.4037322998047,-205.84039306640625,-335.125,129.77471923828125,292.9547424316406,145.34527587890625,-479.1548156738281
313311.16135815723,241.06072998046875,-183.13754272460938,-203.6411590576172,-332.89678955078125,131.7891082763672,294.73779296875,147.51454162597656,-476.8621520996094
313311.1653581572,241.3759765625,-183.24696350097656,-203.76805114746094,-333.04718017578125,131.6707000732422,294.5814208984375,147.50753784179688,-476.8047180175781
313311.1693581572,239.90765380859375,-185.3387908935547,-205.85488891601562,-335.2149353027344,129.71026611328125,292.7204284667969,145.55160522460938,-478.8061218261719
313311.1733581572,238.3174285888672,-187.05091857910156,-207.53404235839844,-336.94903564453125,128.0456085205078,291.1147155761719,143.81948852539062,-480.543212890625
313311.1773581572,239.02586364746094,-185.46119689941406,-205.9972686767578,-335.32635498046875,129.52392578125,292.53607177734375,145.16342163085938,-479.22528076171875
313311.1813581572,241.02674865722656,-183.24346923828125,-203.8150177001953,-333.0971374511719,131.80059814453125,294.790771484375,147.422607421875,-477.223876953125
313311.1853581572,241.3305206298828,-183.6161651611328,-204.1372528076172,-333.4428405761719,131.690185546875,294.769775390625,147.33668518066406,-477.526123046875
313311.1893581572,240.21690368652344,-185.5920867919922,-206.04522705078125,-335.3887939453125,129.9390869140625,293.1920471191406,145.67649841308594,-479.4171142578125
313311.1933581572,238.46780395507812,-187.32220458984375,-207.80581665039062,-337.22882080078125,128.22946166992188,291.5083923339844,143.8394775390625,-481.14324951171875
313311.1973581572,239.10728454589844,-185.7734375,-206.22059631347656,-335.53717041015625,129.63833618164062,292.8098449707031,145.181396484375,-479.6853942871094
313311.2013581572,241.31002807617188,-183.23995971679688,-203.7400665283203,-332.95574951171875,132.00393676757812,295.10302734375,147.58447265625,-477.16693115234375
313311.2053581572,241.47340393066406,-183.37635803222656,-203.92543029785156,-333.218017578125,131.7926025390625,294.8182373046875,147.45907592773438,-477.1289367675781
313311.2093581572,240.06802368164062,-185.21987915039062,-205.7374725341797,-335.092529296875,130.04000854492188,293.0771179199219,145.63104248046875,-478.787109375
313311.2133581572,238.5332489013672,-186.8166046142578,-207.2867431640625,-336.6807556152344,128.49574279785156,291.52288818359375,143.9938507080078,-480.3773498535156
313311.2173581572,239.3201141357422,-185.35028076171875,-205.7709503173828,-335.0760498046875,129.7162628173828,292.58001708984375,145.44068908691406,-479.0054626464844
313311.2213581572,241.38247680664062,-183.06060791015625,-203.52174377441406,-332.7873840332031,132.00894165039062,294.8896789550781,147.73486328125,-476.8646545410156
313311.2253581572,241.82061767578125,-183.2324676513672,-203.70260620117188,-333.0331726074219,132.09336853027344,295.16845703125,147.84776306152344,-477.0565185546875
313311.2293581572,240.40374755859375,-185.26284790039062,-205.70249938964844,-335.0905456542969,130.15892028808594,293.3269348144531,145.98675537109375,-478.92950439453125
313311.2333581572,238.52874755859375,-187.08139038085938,-207.5165557861328,-336.8870849609375,128.20297241210938,291.3375244140625,144.04481506347656,-480.6406555175781
313311.23735815723,239.2801513671875,-185.40773010253906,-205.87586975097656,-335.0865478515625,129.6228485107422,292.65447998046875,145.43069458007812,-479.119873046875
313311.2413581572,241.13916015625,-183.37136840820312,-203.8689727783203,-333.109130859375,131.47286987304688,294.2397155761719,147.5540008544922,-477.16790771484375
313311.2453581572,241.34750366210938,-183.63815307617188,-204.1167755126953,-333.4293518066406,131.3539581298828,294.1967468261719,147.41661071777344,-477.32879638671875
313311.2493581572,240.20191955566406,-185.12046813964844,-205.62506103515625,-334.8931884765625,130.25982666015625,293.5347595214844,145.7609405517578,-478.7816162109375
313311.25335815724,238.7176055908203,-186.6837158203125,-207.141845703125,-336.4104919433594,128.4432830810547,291.7022399902344,144.19918823242188,-480.1914978027344
313311.2573581572,239.5314483642578,-185.01205444335938,-205.56411743164062,-334.75531005859375,129.94908142089844,293.0621337890625,145.6280517578125,-478.76513671875
313311.2613581572,241.4029541015625,-182.79931640625,-203.4378204345703,-332.527099609375,132.34666442871094,295.5356750488281,147.7318572998047,-476.7322692871094
313311.2653581572,241.21360778808594,-183.51025390625,-204.10977172851562,-333.1815490722656,131.62774658203125,294.7787780761719,147.24325561523438,-477.27783203125
313311.26935815724,240.1134796142578,-185.32029724121094,-205.9153289794922,-335.0500793457031,129.7772216796875,292.9527282714844,145.6949920654297,-478.9515075683594
313311.2733581572,239.01187133789062,-186.5688018798828,-207.10289001464844,-336.3375244140625,128.75753784179688,292.0589599609375,144.44549560546875,-480.2129821777344
313311.2773581572,239.58990478515625,-185.07749938964844,-205.67103576660156,-334.9131774902344,130.06149291992188,293.12957763671875,145.67001342773438,-478.947998046875
313311.2813581572,241.4868927001953,-182.97268676757812,-203.55271911621094,-332.73193359375,132.08287048339844,295.1584777832031,147.71987915039062,-476.8726501464844
313311.28535815724,241.3924560546875,-183.46778869628906,-204.03184509277344,-333.2664794921875,131.67120361328125,294.77978515625,147.33567810058594,-477.2168884277344
313311.2893581572,240.20440673828125,-185.1289520263672,-205.72048950195312,-335.00408935546875,130.15492248535156,293.260986328125,145.75244140625,-478.7691345214844
313311.2933581572,238.714599609375,-186.5942840576172,-207.1773223876953,-336.4489440917969,128.65811157226562,291.72821044921875,144.1307373046875,-480.2104797363281
313311.29735815723,239.2401885986328,-185.10897827148438,-205.7169952392578,-334.9021911621094,129.9960479736328,292.9387512207031,145.26034545898438,-478.9145202636719
313311.3013581572,241.29754638671875,-183.004150390625,-203.5836944580078,-332.77587890625,131.8765411376953,294.68084716796875,147.63143920898438,-476.7617492675781
313311.3053581572,241.4224395751953,-183.39434814453125,-204.00486755371094,-333.2535095214844,131.61026000976562,294.4930114746094,147.401123046875,-477.0954895019531
313311.3093581572,240.05453491210938,-185.46319580078125,-206.03773498535156,-335.34783935546875,129.6393280029297,292.5655517578125,145.56759643554688,-479.0114440917969
313311.31335815723,238.54873657226562,-187.14134216308594,-207.67991638183594,-336.9655456542969,128.0316162109375,291.08673095703125,143.8969268798828,-480.7165832519531
313311.3173581572,239.44651794433594,-185.2273712158203,-205.8558807373047,-335.06256103515625,129.9206085205078,292.9212646484375,145.4097137451172,-479.056396484375
313311.3213581572,241.29354858398438,-183.0845947265625,-203.7130889892578,-332.8813171386719,131.927001953125,294.8282470703125,147.5335235595703,-476.8541564941406
313311.32535815716,241.31202697753906,-183.7990264892578,-204.28013610839844,-333.38690185546875,131.24703979492188,294.252685546875,147.15182495117188,-477.3822326660156
313311.3293581572,239.8372039794922,-185.9208221435547,-206.34298706054688,-335.51019287109375,129.1757049560547,292.20733642578125,145.2313690185547,-479.3676452636719
313311.3333581572,238.44981384277344,-187.0374298095703,-207.63645935058594,-336.9500427246094,128.0710906982422,291.0687255859375,143.8000030517578,-480.6086730957031
313311.3373581572,239.2366943359375,-185.21739196777344,-205.891845703125,-335.0990295410156,129.92160034179688,293.0301818847656,145.17691040039062,-479.0893859863281
313311.34135815717,241.02674865722656,-183.11007690429688,-203.79052734375,-332.9572448730469,132.01942443847656,295.1344909667969,147.2642364501953,-477.0320129394531
313311.3453581572,241.4429168701172,-183.5447235107422,-204.06980895996094,-333.3079528808594,131.62074279785156,294.7058410644531,147.31619262695312,-477.2818298339844
313311.3493581572,240.2089080810547,-185.57859802246094,-206.02774047851562,-335.3123474121094,129.79270935058594,293.0311584472656,145.53062438964844,-479.2512512207031
313311.3533581572,238.865478515625,-187.0574188232422,-207.48257446289062,-336.7567138671875,128.3029022216797,291.5458679199219,144.04180908203125,-480.7080993652344
313311.35735815717,239.63287353515625,-185.4047393798828,-205.80992126464844,-334.9471435546875,129.6907958984375,292.8612976074219,145.40621948242188,-479.1538391113281
313311.3613581572,241.4114532470703,-183.30091857910156,-203.7255859375,-332.8498229980469,131.83106994628906,294.9351501464844,147.41610717773438,-477.11297607421875
313311.3653581572,241.7421875,-183.5826873779297,-203.96389770507812,-333.2489929199219,131.58128356933594,294.618408203125,147.43409729003906,-477.2138671875
313311.3693581572,240.25238037109375,-185.5546112060547,-205.98977661132812,-335.31634521484375,129.7772216796875,292.98870849609375,145.46417236328125,-479.1838073730469
313311.37335815723,238.90196228027344,-186.73817443847656,-207.2567596435547,-336.60382080078125,128.55319213867188,291.730712890625,144.09226989746094,-480.392333984375
313311.3773581572,239.72579956054688,-184.9630889892578,-205.5716094970703,-334.790283203125,130.1953887939453,293.3424072265625,145.4751739501953,-478.8800354003906
313311.3813581572,241.51885986328125,-183.1495361328125,-203.6826171875,-332.8797912597656,132.0274200439453,295.16046142578125,147.50404357910156,-477.094482421875
313311.3853581572,241.49737548828125,-183.65164184570312,-204.2286834716797,-333.6162109375,131.52532958984375,294.5914306640625,147.2317657470703,-477.50115966796875
313311.38935815723,240.15396118164062,-185.719482421875,-206.17562866210938,-335.6046142578125,129.55490112304688,292.67694091796875,145.47067260742188,-479.32470703125
313311.3933581572,238.7605743408203,-187.19729614257812,-207.57550048828125,-336.9310607910156,127.98615264892578,291.11370849609375,143.9598846435547,-480.70458984375
313311.3973581572,239.59840393066406,-185.08299255371094,-205.6200714111328,-334.87921142578125,129.73675537109375,292.6754455566406,145.43869018554688,-478.7856140136719
313311.4013581572,241.4599151611328,-182.89173889160156,-203.39984130859375,-332.5970153808594,131.884033203125,294.7322998046875,147.5699920654297,-476.5359191894531
313311.40535815724,241.3939666748047,-183.52523803710938,-203.97637939453125,-333.1590881347656,131.4224090576172,294.3051452636719,147.13633728027344,-477.05950927734375
313311.40935815725,239.9825897216797,-185.53863525390625,-206.01126098632812,-335.28936767578125,129.5099334716797,292.3681945800781,145.33578491210938,-478.97296142578125
313311.4133581572,238.57872009277344,-186.96849060058594,-207.43411254882812,-336.6697692871094,128.17649841308594,291.1476745605469,143.81199645996094,-480.45928955078125
313311.4173581572,239.63487243652344,-185.16392517089844,-205.59909057617188,-334.6488952636719,130.00653076171875,293.0186767578125,145.3607635498047,-478.99346923828125
313311.42135815724,241.4169464111328,-183.22097778320312,-203.65414428710938,-332.5770568847656,131.91751098632812,294.984619140625,147.28271484375,-477.1899108886719
313311.4253581572,241.44091796875,-183.85946655273438,-204.2826385498047,-333.25,131.39892578125,294.5714416503906,146.8890380859375,-477.75946044921875
313311.4293581572,239.93063354492188,-185.8358917236328,-206.28753662109375,-335.3598327636719,129.46597290039062,292.70892333984375,144.95608520507812,-479.594970703125
313311.4333581572,238.606689453125,-187.0823974609375,-207.44911193847656,-336.5858459472656,128.23194885253906,291.4439392089844,143.6456298828125,-480.67510986328125
313311.43735815724,239.5474395751953,-185.072998046875,-205.54612731933594,-334.618408203125,129.95008850097656,292.97021484375,145.17840576171875,-478.87054443359375
313311.4413581572,241.3924560546875,-182.96218872070312,-203.46279907226562,-332.5345764160156,131.9574737548828,294.8706970214844,147.3072052001953,-476.8566589355469
313311.4453581572,241.30552673339844,-183.62266540527344,-204.1512451171875,-333.2664794921875,131.4348907470703,294.39007568359375,146.8480682373047,-477.4267272949219
313311.44935815723,239.82720947265625,-185.6385498046875,-206.1881103515625,-335.37030029296875,129.54290771484375,292.6100158691406,144.9730682373047,-479.3072204589844
313311.45335815725,238.2564697265625,-187.0309295654297,-207.5885009765625,-336.8311462402344,128.11204528808594,291.18463134765625,143.4213104248047,-480.71759033203125
313311.4573581572,239.03285217285156,-185.28382873535156,-205.88136291503906,-335.05255126953125,129.6153564453125,292.5330810546875,144.79971313476562,-479.1353454589844
313311.4613581572,240.70550537109375,-183.28793334960938,-203.91793823242188,-332.9872131347656,131.45138549804688,294.2561950683594,146.6542205810547,-477.1364440917969
313311.46535815723,240.70750427246094,-183.79751586914062,-204.41952514648438,-333.5897216796875,130.90431213378906,293.5122985839844,146.36245727539062,-477.4107360839844
313311.46935815725,239.39906311035156,-185.82989501953125,-206.4324188232422,-335.5941467285156,129.16571044921875,291.968017578125,144.4989471435547,-479.41461181640625
313311.47335815727,237.9866943359375,-187.1778106689453,-207.78134155273438,-336.8631286621094,128.0715789794922,291.2286071777344,142.9536895751953,-480.9189147949219
313311.4773581572,239.06532287597656,-185.3512725830078,-205.956298828125,-334.877197265625,129.76272583007812,292.8238220214844,144.57838439941406,-479.3302001953125
313311.48135815724,240.96530151367188,-183.35687255859375,-203.94891357421875,-332.8283386230469,131.7351531982422,294.7438049316406,146.67271423339844,-477.44268798828125
313311.48535815725,241.02525329589844,-183.8839569091797,-204.40504455566406,-333.37689208984375,131.33297729492188,294.403076171875,146.42539978027344,-477.8828430175781
313311.48935815727,239.61488342285156,-185.8898468017578,-206.3579864501953,-335.4522399902344,129.43948364257812,292.5730285644531,144.5903778076172,-479.7438659667969
313311.4933581572,238.18353271484375,-187.32070922851562,-207.7858428955078,-336.9015808105469,128.00213623046875,291.1661682128906,143.09107971191406,-481.189697265625
313311.49735815724,239.04983520507812,-185.57809448242188,-206.0767059326172,-335.08154296875,129.55340576171875,292.59051513671875,144.53091430664062,-479.680908203125
313311.50135815726,240.68702697753906,-183.73556518554688,-204.28762817382812,-333.2804870605469,131.26553344726562,294.08331298828125,146.3934326171875,-477.89434814453125
313311.5053581573,240.5696258544922,-184.2021942138672,-204.8821563720703,-333.9709167480469,130.9068145751953,293.80255126953125,145.94778442382812,-478.39093017578125
313311.50935815723,239.2941436767578,-186.11917114257812,-206.8291015625,-335.997314453125,129.2246551513672,292.35919189453125,144.16221618652344,-480.23095703125
313311.51335815724,237.94772338867188,-187.44960021972656,-208.18551635742188,-337.3857116699219,127.97966003417969,291.2016296386719,142.73385620117188,-481.6043701171875
313311.51735815726,238.8974609375,-185.57460021972656,-206.3170166015625,-335.393798828125,129.77671813964844,292.87078857421875,144.3006134033203,-479.9247131347656
313311.5213581573,240.79293823242188,-183.3628692626953,-204.10877990722656,-333.1705627441406,131.79611206054688,294.6883544921875,146.48585510253906,-477.6400451660156
313311.52535815723,240.7909393310547,-183.77053833007812,-204.490966796875,-333.62469482421875,131.29051208496094,294.0943298339844,146.19659423828125,-477.78741455078125
313311.52935815725,239.24717712402344,-185.83538818359375,-206.46839904785156,-335.5986328125,129.168701171875,292.01849365234375,144.2036895751953,-479.5894775390625
313311.53335815726,237.64346313476562,-187.3731689453125,-207.89324951171875,-336.9620361328125,127.49354553222656,290.35980224609375,142.59596252441406,-480.9753723144531
313311.5373581573,238.78005981445312,-185.42471313476562,-205.9313201904297,-334.8937072753906,129.330078125,292.0904235839844,144.3600616455078,-479.2017822265625
313311.54135815724,240.6075897216797,-183.35836791992188,-203.90943908691406,-332.88330078125,131.53131103515625,294.27667236328125,146.3609619140625,-477.2903137207031
313311.54535815725,240.5711212158203,-183.93341064453125,-204.50645446777344,-333.5467834472656,131.0846710205078,293.7985534667969,145.96527099609375,-477.8074035644531
313311.54935815727,239.3101348876953,-185.82290649414062,-206.39195251464844,-335.437255859375,129.44598388671875,292.35821533203125,144.2361602783203,-479.637451171875
313311.5533581572,237.9117431640625,-187.1758270263672,-207.73338317871094,-336.7716979980469,128.1590118408203,291.2066345214844,142.8048095703125,-481.0727844238281
313311.55735815724,239.00587463378906,-185.54661560058594,-205.956298828125,-334.83074951171875,129.65782165527344,292.6519775390625,144.47496032714844,-479.44061279296875
313311.56135815725,240.8643798828125,-183.4837646484375,-203.92991638183594,-332.7818908691406,131.33297729492188,294.1867370605469,146.5443115234375,-477.31829833984375
313311.56535815727,240.8099365234375,-183.79452514648438,-204.3470916748047,-333.3888854980469,130.7664337158203,293.4713134765625,146.2460479736328,-477.49017333984375
313311.5693581572,239.49996948242188,-185.77044677734375,-206.22508239746094,-335.3013610839844,129.12124633789062,292.04296875,144.4409942626953,-479.34466552734375
313311.57335815724,238.24148559570312,-186.78163146972656,-207.26824951171875,-336.3495178222656,128.3138885498047,291.28955078125,143.198486328125,-480.435791015625
313311.5773581572,239.32562255859375,-184.9056396484375,-205.39674377441406,-334.43206787109375,129.95057678222656,292.646484375,144.89662170410156,-478.67822265625
313311.5813581572,241.2435760498047,-182.73587036132812,-203.25146484375,-332.2083435058594,131.9949493408203,294.6453857421875,147.00694274902344,-476.52093505859375
313311.58535815723,241.0657196044922,-183.3778533935547,-203.8819580078125,-332.8883056640625,131.56529235839844,294.2891540527344,146.48985290527344,-477.1179504394531
313311.58935815725,239.3371124267578,-185.6095733642578,-206.13465881347656,-335.33984375,129.39852905273438,292.0579528808594,144.48745727539062,-479.2427673339844
313311.5933581572,238.24098205566406,-186.53582763671875,-207.0319366455078,-336.2571105957031,128.52122497558594,291.2521057128906,143.39532470703125,-480.1715087890625
313311.5973581572,239.6603546142578,-184.405029296875,-204.89315795898438,-333.9129638671875,130.59207153320312,293.3958740234375,145.2083740234375,-478.24005126953125
313311.60135815723,241.31752014160156,-182.45359802246094,-202.9981689453125,-331.9605407714844,132.48056030273438,295.2169189453125,147.01792907714844,-476.3200988769531
313311.60535815725,241.2735595703125,-183.08059692382812,-203.54922485351562,-332.5620422363281,131.8385772705078,294.554443359375,146.70718383789062,-476.7487487792969
313311.6093581572,239.82521057128906,-185.14894104003906,-205.5865936279297,-334.6329040527344,129.89712524414062,292.76739501953125,144.8201904296875,-478.7266845703125
313311.6133581572,238.59469604492188,-186.30950927734375,-206.7646484375,-335.846435546875,128.7215576171875,291.5918273925781,143.62115478515625,-479.8817443847656
313311.61735815724,239.5849151611328,-184.53292846679688,-205.03652954101562,-334.079345703125,130.28981018066406,293.0171813964844,145.2003936767578,-478.237060546875
313311.62135815725,241.22760009765625,-182.74485778808594,-203.2604522705078,-332.2947692871094,132.09886169433594,294.7922668457031,147.001953125,-476.53143310546875
313311.6253581572,241.26756286621094,-183.2979278564453,-203.7665557861328,-332.7958679199219,131.70867919921875,294.4520263671875,146.64723205566406,-477.0425109863281
313311.6293581572,240.05352783203125,-185.0780029296875,-205.49667358398438,-334.478515625,130.094970703125,292.8902893066406,145.04901123046875,-478.6991882324219
313311.63335815724,238.51226806640625,-186.49786376953125,-206.86756896972656,-335.8399353027344,128.6476287841797,291.41046142578125,143.55020141601562,-480.047119140625
313311.63735815726,239.4974822998047,-184.69529724121094,-205.1069793701172,-333.993408203125,130.22735595703125,292.8787841796875,145.13543701171875,-478.3649597167969
313311.6413581572,241.25157165527344,-182.94920349121094,-203.3358917236328,-332.2837829589844,132.03240966796875,294.62890625,147.05191040039062,-476.66632080078125
313311.6453581572,241.40345764160156,-183.39683532714844,-203.72409057617188,-332.7903747558594,131.7526397705078,294.3805847167969,146.85406494140625,-477.0095520019531
313311.64935815724,239.9840850830078,-185.1409454345703,-205.4946746826172,-334.6109313964844,130.18438720703125,292.9107666015625,145.12045288085938,-478.6612243652344
313311.6533581572,238.6661376953125,-186.09417724609375,-206.60379028320312,-335.81146240234375,129.0572967529297,291.7671813964844,143.85696411132812,-479.7228698730469
313311.6573581572,239.7038116455078,-184.3995361328125,-204.94261169433594,-334.1562805175781,130.49765014648438,293.07464599609375,145.4092254638672,-478.16461181640625
313311.6613581572,241.4908905029297,-182.5135498046875,-203.08309936523438,-332.2972717285156,132.36614990234375,294.9306640625,147.31768798828125,-476.3630676269531
313311.6653581572,241.1301727294922,-183.20948791503906,-203.73757934570312,-332.96722412109375,131.6202392578125,294.2142333984375,146.72166442871094,-476.8346862792969
313311.6693581572,239.35009765625,-185.44371032714844,-205.9383087158203,-335.2419128417969,129.39102172851562,292.07244873046875,144.66632080078125,-478.9330139160156
313311.6733581572,238.2814483642578,-186.61976623535156,-207.08290100097656,-336.32855224609375,128.3193817138672,291.11370849609375,143.53521728515625,-480.1990051269531
313311.6773581572,239.58740234375,-184.78173828125,-205.27734375,-334.4335632324219,130.0879669189453,292.6799621582031,145.23435974121094,-478.5458068847656
313311.6813581572,241.29653930664062,-182.93521118164062,-203.47828674316406,-332.63848876953125,131.7996063232422,294.1268005371094,147.1078643798828,-476.68829345703125
313311.6853581572,241.386474609375,-183.31690979003906,-203.8529815673828,-333.0141906738281,131.71766662597656,294.2891540527344,146.83457946777344,-477.06201171875
313311.6893581572,240.06752014160156,-185.09149169921875,-205.61557006835938,-334.8807067871094,130.17340087890625,292.8073425292969,145.1864013671875,-478.797607421875
313311.6933581572,238.8170166015625,-186.15164184570312,-206.68821716308594,-335.9313659667969,129.1447296142578,291.796142578125,143.95887756347656,-479.87225341796875
313311.6973581572,240.0235595703125,-184.103271484375,-204.7192840576172,-333.7740783691406,130.94178771972656,293.5427551269531,145.62405395507812,-477.9038391113281
313311.7013581572,241.87257385253906,-182.20179748535156,-202.8043212890625,-331.81964111328125,132.80130004882812,295.329833984375,147.5804901123047,-475.92791748046875
313311.7053581572,241.774658203125,-182.93670654296875,-203.42332458496094,-332.49859619140625,132.1673126220703,294.747802734375,147.28521728515625,-476.4355163574219
313311.7093581572,240.1819305419922,-184.95909118652344,-205.45570373535156,-334.574462890625,130.0864715576172,292.786865234375,145.3782501220703,-478.3564758300781
313311.7133581572,238.86398315429688,-186.11366271972656,-206.6912078857422,-335.781494140625,128.6960906982422,291.4149475097656,144.07627868652344,-479.54949951171875
313311.7173581572,240.03504943847656,-184.5319366455078,-205.0745086669922,-333.9809265136719,130.06149291992188,292.76788330078125,145.67051696777344,-478.0502014160156
313311.7213581572,241.8341064453125,-182.59597778320312,-203.21449279785156,-332.0574645996094,132.04840087890625,294.78326416015625,147.551513671875,-476.2286682128906
313311.7253581572,241.4923858642578,-183.25146484375,-203.85897827148438,-332.7773742675781,131.59677124023438,294.38409423828125,146.9355010986328,-476.82470703125
313311.7293581572,240.072021484375,-185.11996459960938,-205.69351196289062,-334.65087890625,129.78770446777344,292.6629638671875,145.21188354492188,-478.58929443359375
313311.7333581572,238.82151794433594,-186.1481475830078,-206.78663635253906,-335.76348876953125,128.73106384277344,291.5708312988281,143.99435424804688,-479.67340087890625
313311.73735815723,239.7897491455078,-184.38055419921875,-205.17391967773438,-334.1602783203125,130.4541778564453,293.17755126953125,145.43820190429688,-478.1986083984375
313311.7413581572,241.5558319091797,-182.69590759277344,-203.47079467773438,-332.49810791015625,132.13333129882812,294.769775390625,147.29721069335938,-476.5574035644531
313311.7453581572,241.39645385742188,-183.3289031982422,-204.0328369140625,-333.2015380859375,131.52532958984375,294.1112976074219,146.97146606445312,-477.00054931640625
313311.7493581572,239.9481201171875,-185.1644287109375,-205.880859375,-335.1724548339844,129.66580200195312,292.2632751464844,145.32528686523438,-478.64324951171875
313311.75335815724,238.6206817626953,-186.28903198242188,-207.05642700195312,-336.428466796875,128.5142364501953,291.1286926269531,144.05929565429688,-479.7943115234375
313311.7573581572,239.8866729736328,-184.4749755859375,-205.24386596679688,-334.5414733886719,130.1938934326172,292.8782958984375,145.73695373535156,-478.1311340332031
313311.7613581572,241.7371826171875,-182.723876953125,-203.37686157226562,-332.6120300292969,131.87603759765625,294.56494140625,147.66241455078125,-476.3140869140625
313311.7653581572,241.61328125,-183.07659912109375,-203.70809936523438,-333.0137023925781,131.4224090576172,293.993896484375,147.3651580810547,-476.4959411621094
313311.76935815724,240.1529541015625,-184.95559692382812,-205.546630859375,-334.9241638183594,129.4949493408203,292.0599365234375,145.60105895996094,-478.2280578613281
313311.77335815725,238.84449768066406,-186.21209716796875,-206.72268676757812,-336.12469482421875,128.39732360839844,290.97381591796875,144.27362060546875,-479.4610900878906
313311.7773581572,239.96859741210938,-184.51544189453125,-205.0490264892578,-334.40557861328125,129.97256469726562,292.345703125,145.8523712158203,-477.94281005859375
313311.7813581572,241.77716064453125,-182.38365173339844,-203.0920867919922,-332.3931884765625,131.9449920654297,294.3860778808594,147.77732849121094,-476.00384521484375
313311.78535815724,241.4029541015625,-183.33938598632812,-203.97738647460938,-333.239501953125,131.22256469726562,293.8689880371094,147.0758819580078,-476.91461181640625
313311.78935815726,239.88116455078125,-185.2853240966797,-205.9867706298828,-335.3248596191406,129.56788635253906,292.3277282714844,145.24085998535156,-478.94049072265625
313311.7933581572,238.87547302246094,-186.20709228515625,-206.98147583007812,-336.37451171875,128.89791870117188,291.7696838378906,144.20068359375,-480.0406188964844
313311.79735815723,240.26686096191406,-184.2346649169922,-205.0994873046875,-334.4620361328125,130.76243591308594,293.52978515625,145.94479370117188,-478.32550048828125
313311.80135815724,241.68922424316406,-182.7723388671875,-203.68211364746094,-333.001708984375,132.2912139892578,295.157958984375,147.42111206054688,-476.99005126953125
313311.80535815726,241.34649658203125,-183.47528076171875,-204.3865509033203,-333.7226257324219,131.73265075683594,294.64837646484375,146.89202880859375,-477.5516052246094
313311.8093581572,239.66883850097656,-185.51014709472656,-206.3784637451172,-335.8079528808594,129.7307586669922,292.5965270996094,145.0015411376953,-479.3941345214844
313311.81335815723,238.77105712890625,-186.55032348632812,-207.31121826171875,-336.7567138671875,128.64962768554688,291.5538635253906,144.00634765625,-480.3963317871094
313311.81735815725,240.23089599609375,-184.67831420898438,-205.4032440185547,-334.7078552246094,130.2998046875,293.2454833984375,145.8253936767578,-478.6831970214844
313311.82135815726,241.9070587158203,-182.9317169189453,-203.70310974121094,-333.0221862792969,132.06838989257812,294.9731140136719,147.6134490966797,-476.98956298828125
313311.8253581572,241.63526916503906,-183.55821228027344,-204.31211853027344,-333.6471862792969,131.5747833251953,294.446044921875,147.08737182617188,-477.49017333984375
313311.82935815724,239.91514587402344,-185.7050018310547,-206.37596130371094,-335.7405090332031,129.50393676757812,292.4086608886719,145.1219482421875,-479.40313720703125
313311.83335815725,239.02935791015625,-186.6012725830078,-207.22479248046875,-336.5638427734375,128.6960906982422,291.6537780761719,144.23165893554688,-480.3158874511719
313311.83735815727,240.48069763183594,-184.58738708496094,-205.287841796875,-334.5220031738281,130.65452575683594,293.61968994140625,145.98875427246094,-478.5183410644531
313311.8413581572,241.990478515625,-182.69239807128906,-203.58419799804688,-332.8443298339844,132.35165405273438,295.27337646484375,147.616455078125,-476.7352600097656
313311.84535815724,241.64476013183594,-183.27044677734375,-204.1277618408203,-333.47930908203125,131.88253784179688,294.80474853515625,147.05239868164062,-477.24786376953125
313311.84935815725,240.11099243164062,-185.27783203125,-206.07470703125,-335.49371337890625,129.9675750732422,292.8782958984375,145.180908203125,-479.2162780761719
313311.85335815727,238.8564910888672,-186.53683471679688,-207.27224731445312,-336.6747741699219,128.65162658691406,291.6602783203125,143.95188903808594,-480.477783203125
313311.8573581572,240.20240783691406,-184.64035034179688,-205.39724731445312,-334.6868591308594,130.28282165527344,293.27197265625,145.7059783935547,-478.67022705078125
313311.86135815724,241.8091278076172,-182.88525390625,-203.6791229248047,-332.96923828125,131.8335723876953,294.67584228515625,147.4710693359375,-476.8541564941406
313311.86535815726,241.31103515625,-183.74606323242188,-204.52593994140625,-333.8804931640625,131.1206512451172,293.9349365234375,146.73666381835938,-477.6590270996094
313311.8693581573,239.82821655273438,-185.54661560058594,-206.3679656982422,-335.7135314941406,129.5184326171875,292.3926696777344,144.96456909179688,-479.40362548828125
313311.8733581573,238.75807189941406,-186.4988555908203,-207.3601837158203,-336.6907653808594,128.4752655029297,291.3265380859375,143.95138549804688,-480.3868408203125
313311.87735815725,239.94361877441406,-184.81471252441406,-205.7064971923828,-334.95263671875,130.02902221679688,292.8153381347656,145.49314880371094,-478.8530578613281
313311.88135815726,241.4913787841797,-183.24246215820312,-204.04283142089844,-333.2695007324219,131.67919921875,294.554443359375,147.1713104248047,-477.1714172363281
313311.8853581573,241.2660675048828,-183.72657775878906,-204.58489990234375,-333.90496826171875,131.20057678222656,294.0033874511719,146.73915100097656,-477.6015625
313311.8893581573,239.95811462402344,-185.3817596435547,-206.22657775878906,-335.51519775390625,129.57687377929688,292.5400695800781,145.14193725585938,-479.1648254394531
