lsl_time,CZ,C3,CPZ3,FC4,FC3,CPZ4,C4,CPZ
304839.8506928711,0.27076461911201477,0.5211134552955627,0.30083420872688293,-0.13956253230571747,-0.09267059713602066,1.0377055406570435,1.870300054550171,1.7757560014724731
304839.85469287104,0.3942788541316986,0.6500691771507263,0.2105502039194107,-0.10147696733474731,0.6149059534072876,1.9619154930114746,1.9398651123046875,0.9976655840873718
304839.85869287106,0.4857425391674042,0.6919730305671692,0.05865912884473801,0.020526882261037827,1.4253727197647095,2.73055362701416,1.5849430561065674,-0.17104840278625488
304839.8626928711,0.5521677136421204,0.7868260741233826,0.05875065550208092,0.02075069211423397,1.6552610397338867,3.1469943523406982,1.8316534757614136,-0.269076406955719
304839.8666928711,0.2975318729877472,0.23538893461227417,-0.09730487316846848,0.5480671525001526,1.4209223985671997,0.5368866920471191,-0.3756211996078491,1.407504677772522
304839.87069287105,0.4135867953300476,0.20984819531440735,-0.04020072892308235,1.1337655782699585,1.548821210861206,0.19429518282413483,0.6897338032722473,2.4074783325195312
304839.87469287106,0.4877172112464905,0.13496281206607819,0.05432211980223656,1.6787067651748657,1.3585389852523804,-0.23126846551895142,1.99857497215271,3.023998975753784
304839.8786928711,0.5555686354637146,0.1519373655319214,0.054036032408475876,1.927059292793274,1.5437450408935547,-0.290437251329422,2.2864367961883545,3.552539825439453
304839.8826928711,0.27628082036972046,-0.053772248327732086,0.36649587750434875,1.0487204790115356,-0.2230292707681656,0.8035283088684082,1.6010239124298096,-0.2955798804759979
304839.88669287105,0.37083399295806885,-0.12001028656959534,0.7983812689781189,1.07658851146698,-0.12718673050403595,1.817023754119873,1.2084108591079712,0.24045008420944214
304839.89069287106,0.4254123270511627,-0.1770590990781784,1.2187763452529907,0.9053502082824707,0.0831867977976799,2.7521727085113525,0.3743114769458771,1.225667119026184
304839.8946928711,0.4825229346752167,-0.20188169181346893,1.3959635496139526,1.0226304531097412,0.06016167625784874,3.186265707015991,0.38307878375053406,1.324231505393982
304839.8986928711,0.21311235427856445,-0.059688765555620193,0.8468887805938721,-0.1847168654203415,1.0028581619262695,0.7343551516532898,0.25511613488197327,2.37355637550354
304839.90269287105,0.27357760071754456,-0.008216655813157558,1.1096906661987305,-0.2417071908712387,1.7575026750564575,0.47335556149482727,1.5638954639434814,1.774436593055725
304839.90669287107,0.3015609383583069,0.06830649822950363,1.2266310453414917,-0.20796051621437073,2.3517913818359375,0.12324737757444382,3.014410972595215,0.7035720348358154
304839.9106928711,0.34217461943626404,0.07964117079973221,1.3935163021087646,-0.2765893042087555,2.714076519012451,0.07334889471530914,3.4675769805908203,0.6751651167869568
304839.9146928711,0.1450738161802292,0.17755338549613953,0.49972859025001526,0.3362489938735962,0.8523488640785217,0.6237185597419739,0.8976119160652161,1.175408959388733
304839.91869287106,0.17821478843688965,0.36853691935539246,0.4795720875263214,0.8522517681121826,0.6740551590919495,1.4723378419876099,0.7364640235900879,2.3153634071350098
304839.92269287107,0.15434198081493378,0.566251277923584,0.2013736516237259,1.4195680618286133,0.08678406476974487,2.153928756713867,0.4068114757537842,2.762317419052124
304839.9266928711,0.12009645253419876,0.7523735165596008,-0.11215095967054367,1.9218854904174805,-0.45048636198043823,2.5317776203155518,0.3658730983734131,2.491429567337036
304839.9306928711,0.11983440816402435,0.8400920629501343,-0.1794072687625885,2.170750856399536,-0.6468955874443054,2.8669495582580566,0.2499534636735916,2.8263421058654785
304839.9346928711,0.0274514127522707,0.6280385255813599,-0.07010935992002487,0.8950990438461304,0.7758546471595764,0.18974900245666504,1.708190679550171,0.3591899573802948
304839.9386928711,0.02971620112657547,0.9475706815719604,-0.07057918608188629,1.1436599493026733,1.507605791091919,0.042778532952070236,2.5104780197143555,1.598260521888733
304839.9426928711,0.034473858773708344,1.0968470573425293,-0.08045772463083267,1.3397657871246338,1.72616446018219,-0.005139855667948723,2.9281060695648193,1.6618468761444092
304839.9466928711,-0.014496547169983387,0.5556589961051941,0.2313753366470337,0.03568441793322563,1.518751621246338,0.1945144683122635,0.10242415219545364,4.419842720031738
304839.95069287106,-0.03565371036529541,0.7194809317588806,0.594143271446228,-0.0632576197385788,1.5858417749404907,1.2537083625793457,0.15365947782993317,3.832455635070801
304839.9546928711,-0.05791856348514557,0.8018187880516052,0.9578498601913452,-0.14808741211891174,1.3455272912979126,2.348724126815796,0.43748393654823303,2.1834614276885986
304839.9586928711,-0.06645945459604263,0.9102956652641296,1.1030594110488892,-0.18016672134399414,1.5219424962997437,2.75087308883667,0.3845660984516144,2.296759605407715
304839.9626928711,-0.04180602356791496,0.32550036907196045,0.8802157640457153,0.22170333564281464,-0.13518831133842468,1.3109749555587769,3.558467149734497,0.056878622621297836
304839.96669287106,-0.06572387367486954,0.33327674865722656,1.1993328332901,0.8010807037353516,-0.152986079454422,0.9503573775291443,3.7664663791656494,1.577707290649414
304839.9706928711,-0.08517347276210785,0.28007182478904724,1.3981120586395264,1.4255812168121338,-0.046026431024074554,0.3574148118495941,3.012105703353882,3.1877307891845703
304839.9746928711,-0.09762024134397507,0.3150920569896698,1.5798628330230713,1.6359275579452515,-0.10511082410812378,0.3314555287361145,3.358459949493408,3.7555980682373047
304839.9786928711,-0.03786061331629753,0.001999109983444214,0.5345706939697266,1.1367617845535278,1.2474727630615234,0.38150107860565186,-0.06713966280221939,0.5340269207954407
304839.98269287107,-0.04944142326712608,-0.02966574765741825,0.6571800708770752,1.6504725217819214,2.19862961769104,1.1962459087371826,0.03622031211853027,0.20042598247528076
304839.9866928711,-0.05650043115019798,-0.03283749520778656,0.7618761658668518,1.9236996173858643,2.513911008834839,1.3514434099197388,-0.05476180091500282,0.17756512761116028
304839.9906928711,-0.005149265751242638,-0.12433972954750061,0.030028313398361206,0.5205272436141968,1.2827330827713013,1.8211368322372437,1.668542742729187,1.0823030471801758
304839.99469287106,0.01586199551820755,-0.13448293507099152,-0.08331061154603958,0.32054460048675537,1.0368118286132812,1.8266230821609497,2.1602730751037598,2.367884397506714
304839.9986928711,0.04182126000523567,-0.1108475923538208,-0.20980271697044373,0.012930318713188171,0.5153622627258301,1.4042303562164307,2.277994394302368,3.328927755355835
304840.0026928711,0.04739478603005409,-0.1298295259475708,-0.2379533052444458,-0.011495097540318966,0.5669284462928772,1.6008738279342651,2.6482536792755127,4.018449783325195
304840.0066928711,0.06562501192092896,0.061041854321956635,-0.034245237708091736,-0.10962570458650589,-0.08406024426221848,-0.40794849395751953,-0.2764092683792114,-0.06889356672763824
304840.01069287106,0.12396543473005295,0.1945193111896515,0.20307165384292603,0.2260734736919403,0.28987544775009155,0.06912112981081009,0.2609484791755676,0.17318546772003174
304840.0146928711,0.17833061516284943,0.3380010724067688,0.4804563820362091,0.6356743574142456,0.777762234210968,0.7698186635971069,1.0370469093322754,0.7796069979667664
304840.0186928711,0.20336119830608368,0.3856717348098755,0.5480257272720337,0.724959671497345,0.880033552646637,0.8536739945411682,1.1502091884613037,0.7820227742195129
304840.0226928711,0.15047214925289154,0.36937621235847473,0.6429010033607483,0.9200925230979919,1.3722774982452393,1.6122692823410034,1.6750144958496094,2.639723300933838
304840.02669287106,0.24332335591316223,0.6290568113327026,1.0464130640029907,1.4241878986358643,1.930576205253601,1.8905740976333618,1.6618571281433105,2.1102466583251953
304840.0306928711,0.32143715023994446,0.8570554852485657,1.3751380443572998,1.7846556901931763,2.1894071102142334,1.7741148471832275,1.2234500646591187,0.9343472123146057
304840.0346928711,0.3651842772960663,0.9742141962051392,1.5694392919540405,2.065554618835449,2.530883550643921,2.0493550300598145,1.4227256774902344,0.9830669164657593
304840.0386928711,0.23110464215278625,0.5804597735404968,0.8175294399261475,0.681412935256958,0.23648986220359802,-0.14430752396583557,-0.15591658651828766,0.14932091534137726
304840.04269287107,0.34468141198158264,0.8201107382774353,0.9101152420043945,0.46462395787239075,0.10405178368091583,0.04848651960492134,0.8778299689292908,1.6440695524215698
304840.0466928711,0.4298931956291199,0.9752852916717529,0.860714316368103,0.08543501794338226,-0.042216911911964417,0.46262460947036743,2.1969661712646484,3.205111026763916
304840.0506928711,0.48907431960105896,1.1142791509628296,0.974275529384613,0.08361228555440903,-0.07287859916687012,0.4829333424568176,2.4964089393615723,3.7047207355499268
304840.0546928711,0.28130027651786804,0.48592832684516907,0.12539291381835938,-0.19545572996139526,0.473887175321579,1.517318844795227,1.9192705154418945,0.32310476899147034
304840.05869287107,0.4030652344226837,0.5691965222358704,0.0021338926162570715,-0.01767999492585659,1.2446060180664062,1.9483786821365356,1.2530946731567383,0.47438812255859375
304840.0626928711,0.48853799700737,0.5685725808143616,-0.15337790548801422,0.2848215699195862,1.9762715101242065,2.074002504348755,0.1692015677690506,0.9803566932678223
304840.0666928711,0.5566849112510681,0.6439794301986694,-0.1931225061416626,0.3083745241165161,2.314304828643799,2.414754629135132,0.11638271808624268,0.8837456703186035
304840.0706928711,0.28759124875068665,0.1560969054698944,-0.07164391875267029,0.851494550704956,1.2057750225067139,0.06094959005713463,0.25658443570137024,4.193878650665283
304840.0746928711,0.4036811590194702,0.10233671963214874,0.0802929699420929,1.449591875076294,1.0218048095703125,0.1042582243680954,1.5661115646362305,3.7286481857299805
304840.0786928711,0.4811936318874359,0.01198043953627348,0.27468007802963257,1.9429433345794678,0.5548467040061951,0.25910139083862305,2.904324769973755,2.167902708053589
304840.0826928711,0.5464898347854614,0.009439943358302116,0.30673858523368835,2.2308194637298584,0.619167149066925,0.25383371114730835,3.4182653427124023,2.3586437702178955
304840.0866928711,0.2772686779499054,-0.08710416406393051,0.7036498785018921,0.7132209539413452,-0.017039528116583824,1.5585284233093262,0.4597582519054413,0.5977282524108887
304840.0906928711,0.40859344601631165,-0.12823858857154846,1.1917692422866821,0.8325780630111694,0.13202421367168427,2.4315648078918457,-0.05050228536128998,1.5067423582077026
304840.0946928711,0.4718281328678131,-0.144615039229393,1.3695437908172607,0.9719875454902649,0.12885209918022156,2.7970054149627686,-0.03344182297587395,1.6548960208892822
304840.0986928711,0.2142847776412964,-0.04710831120610237,0.8943439722061157,-0.12744489312171936,0.9841012954711914,0.7804027795791626,0.3895254135131836,2.192336320877075
304840.10269287106,0.275902658700943,0.0003610686690080911,1.1693307161331177,-0.20259778201580048,1.6827081441879272,0.37131667137145996,2.298818588256836,1.6094658374786377
304840.1066928711,0.3047049045562744,0.07002556324005127,1.2993229627609253,-0.21364490687847137,2.231454372406006,-0.1477576345205307,4.01775598526001,0.4713141620159149
304840.1106928711,0.3455445468425751,0.07507894933223724,1.4787216186523438,-0.2589627504348755,2.5712928771972656,-0.23887595534324646,4.942936897277832,0.4830714464187622
304840.1146928711,0.1345827281475067,0.20901471376419067,0.4430138170719147,0.38651755452156067,0.736489474773407,0.5407476425170898,1.0483661890029907,0.6293847560882568
304840.11869287107,0.1595013290643692,0.4125249683856964,0.34389349818229675,0.9565991759300232,0.38106706738471985,1.638993263244629,0.577348530292511,2.0519936084747314
304840.1226928711,0.16240188479423523,0.6054521203041077,0.14473962783813477,1.5135427713394165,-0.16233007609844208,2.725464105606079,-0.08207995444536209,3.369885206222534
304840.1266928711,0.1836276352405548,0.6915605068206787,0.15945424139499664,1.7476167678833008,-0.1907377541065216,3.1960299015045166,-0.17916594445705414,4.022942543029785
304840.1306928711,0.051793329417705536,0.5212770104408264,-0.12217586487531662,1.1229170560836792,-0.05733155459165573,1.074437141418457,1.1510236263275146,0.06741364300251007
304840.13469287107,0.045680999755859375,0.797370433807373,-0.14015811681747437,1.2630363702774048,0.6022647619247437,0.5131834745407104,2.2597053050994873,0.25871896743774414
304840.1386928711,0.02997754141688347,1.0051674842834473,-0.10703788697719574,1.1914364099502563,1.3570847511291504,-0.2881709039211273,3.1483876705169678,0.7817789316177368
304840.1426928711,0.032835837453603745,1.146536946296692,-0.13767249882221222,1.3668771982192993,1.572932243347168,-0.39024850726127625,3.6567797660827637,0.8218644857406616
304840.1466928711,-0.01154409721493721,0.5831395387649536,0.22398579120635986,0.06130952388048172,1.5037881135940552,0.27425694465637207,0.25325316190719604,2.3825011253356934
304840.1506928711,-0.03529408201575279,0.7401431202888489,0.6011247634887695,-0.06228348985314369,1.5649021863937378,1.241228699684143,0.07167162001132965,2.049241781234741
304840.1546928711,-0.06127433478832245,0.8028508424758911,0.9855180382728577,-0.16244986653327942,1.3428540229797363,2.252009391784668,-0.013650953769683838,0.9756338596343994
304840.1586928711,-0.06928236782550812,0.9118415713310242,1.131319284439087,-0.2139020413160324,1.5338003635406494,2.605468511581421,-0.16244235634803772,1.1354823112487793
304840.1626928711,-0.04340466111898422,0.3259352445602417,0.84220951795578,0.25826752185821533,-0.13354487717151642,1.114554524421692,1.7999777793884277,0.1345219761133194
304840.1666928711,-0.06285368651151657,0.3369915187358856,1.156516194343567,0.7818933129310608,-0.10431929677724838,0.8666386008262634,2.250439405441284,1.3175641298294067
304840.1706928711,-0.07646500319242477,0.28870734572410583,1.3427541255950928,1.3386013507843018,0.03618980571627617,0.3939196467399597,2.22663950920105,2.534212589263916
304840.1746928711,-0.08710505813360214,0.324113667011261,1.525151252746582,1.531107783317566,0.04087461903691292,0.3849644660949707,2.583660840988159,2.9741218090057373
304840.1786928711,-0.041686661541461945,0.0015704733086749911,0.5777047872543335,1.1717685461044312,0.926706850528717,0.06839173287153244,-0.04622470587491989,0.8019030094146729
304840.1826928711,-0.042516980320215225,-0.07096352428197861,0.5214061737060547,1.3585633039474487,1.7319668531417847,0.949036717414856,0.42253822088241577,0.582244336605072
304840.1866928711,-0.036622948944568634,-0.14439748227596283,0.3462155759334564,1.3359851837158203,2.429032802581787,1.911597728729248,1.1241110563278198,0.44927096366882324
304840.1906928711,-0.04105271026492119,-0.17235277593135834,0.3864865303039551,1.5147513151168823,2.824594497680664,2.2166738510131836,1.2174911499023438,0.26193568110466003
304840.1946928711,0.01082382071763277,-0.11134082078933716,-0.1287139356136322,0.17260023951530457,0.7871828079223633,1.522455096244812,2.145231246948242,4.4225568771362305
304840.1986928711,0.04137777164578438,-0.10162517428398132,-0.17781999707221985,-0.008245941251516342,0.4672988951206207,1.0966347455978394,1.9346131086349487,4.145340919494629
304840.2026928711,0.0755620226264,-0.06124896928668022,-0.19433386623859406,-0.20380859076976776,-0.03336844965815544,0.292778879404068,1.1464351415634155,2.6002674102783203
304840.2066928711,0.0864369124174118,-0.07063910365104675,-0.2412288784980774,-0.2690553367137909,-0.0532451830804348,0.3275300860404968,1.3038607835769653,2.8373947143554688
304840.21069287113,0.08592730015516281,0.11549630761146545,0.11842192709445953,0.03223753720521927,0.08169423043727875,-0.08566728979349136,-0.2751358449459076,-0.29484233260154724
304840.2146928711,0.15318486094474792,0.2953222990036011,0.429322749376297,0.5069629549980164,0.6816293597221375,0.8976096510887146,0.8194591403007507,1.1000012159347534
304840.2186928711,0.2141108363866806,0.4787781536579132,0.7698030471801758,1.0407357215881348,1.3762450218200684,2.0785505771636963,2.1191036701202393,2.7909133434295654
304840.2226928711,0.24400056898593903,0.5469697713851929,0.8801900148391724,1.2051702737808228,1.588311791419983,2.3721718788146973,2.463507890701294,3.1881656646728516
304840.22669287113,0.19889388978481293,0.5304592251777649,0.9073052406311035,1.1441906690597534,1.349222183227539,1.4347317218780518,1.3573672771453857,0.8742794394493103
304840.2306928711,0.31311938166618347,0.8512119650840759,1.4644174575805664,1.7448947429656982,1.9029357433319092,1.699265480041504,1.3171236515045166,0.42624372243881226
304840.2346928711,0.35996586084365845,0.9766273498535156,1.6929606199264526,2.0046722888946533,2.197988510131836,1.978001594543457,1.5409867763519287,0.5223807692527771
304840.2386928711,0.22982631623744965,0.6421294212341309,0.8376549482345581,0.7364802360534668,0.19888411462306976,-0.40861251950263977,-0.3279806077480316,0.806925356388092
304840.2426928711,0.34487926959991455,0.8877063393592834,1.0096371173858643,0.6790856719017029,0.11480570584535599,-0.26842859387397766,0.7056071162223816,1.9346680641174316
304840.2466928711,0.4023246467113495,0.909634530544281,0.8144457340240479,0.2560774087905884,0.037807486951351166,0.49818822741508484,2.2872636318206787,2.703544855117798
304840.2506928711,0.4441293776035309,0.8664619326591492,0.5326082706451416,-0.18304584920406342,0.07005757093429565,1.547916293144226,3.6472363471984863,2.8815741539001465
304840.2546928711,0.4797288775444031,0.9169579744338989,0.509105920791626,-0.3013206124305725,0.036083437502384186,1.8196430206298828,4.271071910858154,3.335341215133667
304840.25869287114,0.28713008761405945,0.39799070358276367,-0.014994081109762192,-0.005551374517381191,0.9842128753662109,1.7015773057937622,0.629970133304596,-0.001713741454295814
304840.2626928711,0.40406444668769836,0.4458290636539459,-0.12499009817838669,0.3684324026107788,1.8250330686569214,1.5804132223129272,0.2869001626968384,0.6973509192466736
304840.2666928711,0.4834864139556885,0.4229472875595093,-0.21850132942199707,0.8399462699890137,2.5247223377227783,1.1055177450180054,-0.03126515820622444,1.696610450744629
304840.2706928711,0.5494403839111328,0.4776946008205414,-0.27006056904792786,0.9543882012367249,2.9328503608703613,1.2427887916564941,-0.16181957721710205,1.901734709739685
304840.27469287114,0.311262845993042,0.052700188010931015,0.09694639593362808,1.2460509538650513,0.5929668545722961,-0.1463550627231598,1.5889700651168823,1.5538171529769897
304840.2786928711,0.46506497263908386,0.018892919644713402,0.2662917971611023,1.9407734870910645,0.5660451054573059,0.10839992016553879,2.7775421142578125,1.373866319656372
304840.2826928711,0.5368276834487915,0.02333671599626541,0.29917415976524353,2.2429776191711426,0.6674907207489014,0.05590903013944626,3.239893913269043,1.6819530725479126
304840.28669287113,0.2607535421848297,-0.07204076647758484,0.5361670255661011,0.8073553442955017,-0.29837873578071594,1.394415020942688,1.002338171005249,-0.35953518748283386
304840.2906928711,0.3453749120235443,-0.107103630900383,0.9303140640258789,0.6744512915611267,0.11834768950939178,2.0310630798339844,0.4151154160499573,1.3681929111480713
304840.2946928711,0.39320385456085205,-0.1274823397397995,1.266090989112854,0.3589100241661072,0.6683756709098816,2.386357307434082,-0.31585872173309326,3.3873090744018555
304840.2986928711,0.4460293650627136,-0.14995020627975464,1.4522321224212646,0.4006144404411316,0.75211501121521,2.8139824867248535,-0.4752940833568573,3.9399709701538086
304840.30269287113,0.19819413125514984,-0.009401865303516388,0.910354495048523,-0.15261730551719666,1.3272908926010132,0.13279221951961517,1.120380163192749,0.979147732257843
304840.3066928711,0.24840819835662842,0.08853856474161148,1.0757380723953247,-0.036509014666080475,1.8781239986419678,-0.08009158074855804,2.058927059173584,0.7233356237411499
304840.3106928711,0.26852917671203613,0.20239584147930145,1.0754178762435913,0.14724744856357574,2.1506383419036865,-0.2246575951576233,2.751250982284546,0.4463578164577484
304840.3146928711,0.303955078125,0.2332731932401657,1.2186429500579834,0.1507916897535324,2.4884629249572754,-0.34733206033706665,3.264279365539551,0.38312971591949463
304840.31869287114,0.11329887807369232,0.29383549094200134,0.2512623965740204,0.7314499020576477,0.1582014113664627,1.2717702388763428,0.10629741102457047,3.63026762008667
304840.3226928711,0.12938298285007477,0.5367400646209717,0.15900690853595734,1.3848963975906372,0.001811895752325654,2.045196771621704,0.1750507354736328,3.76689076423645
304840.3266928711,0.12630316615104675,0.7563579082489014,0.013585777953267097,1.9684170484542847,-0.1077955961227417,2.5513086318969727,0.38158920407295227,2.9573447704315186
304840.3306928711,0.1422872245311737,0.8631628751754761,0.006032748147845268,2.2600808143615723,-0.1696256697177887,2.993173360824585,0.37394410371780396,3.326632022857666
304840.33469287114,0.03245360776782036,0.5554309487342834,-0.09467838704586029,0.9063336253166199,0.487753301858902,0.34834569692611694,1.791903018951416,-0.180501788854599
304840.3386928711,0.017323577776551247,0.7969763278961182,-0.01555632520467043,0.8805783987045288,1.2556830644607544,0.16306301951408386,2.1755752563476562,0.7408034205436707
304840.3426928711,-0.0053831832483410835,0.9630151987075806,0.10522403568029404,0.6473151445388794,2.0227415561676025,0.004273135680705309,2.1302993297576904,2.048372268676758
304840.3466928711,-0.006641278974711895,1.1019610166549683,0.11867059022188187,0.731728732585907,2.3261797428131104,-0.08003069460391998,2.502028465270996,2.340481758117676
304840.35069287114,-0.026075022295117378,0.5475557446479797,0.43056386709213257,-0.14832012355327606,1.286810278892517,1.0830219984054565,-0.2882272005081177,1.5313498973846436
304840.3546928711,-0.0501750186085701,0.6620935201644897,0.8629828691482544,-0.13644050061702728,1.0408035516738892,2.088855743408203,0.44057586789131165,1.0283238887786865
304840.3586928711,-0.07049276679754257,0.686042308807373,1.2677816152572632,-0.06236576288938522,0.5212830901145935,2.9115498065948486,1.4176286458969116,0.2480970323085785
304840.36269287113,-0.0809515193104744,0.775126039981842,1.4488962888717651,-0.07859671860933304,0.5659786462783813,3.3890459537506104,1.5786669254302979,0.16713275015354156
304840.36669287115,-0.051511894911527634,0.23412124812602997,0.8417301177978516,0.5464573502540588,-0.26868656277656555,0.6241183280944824,1.8792303800582886,1.2820481061935425
304840.3706928711,-0.06889685988426208,0.22014440596103668,1.0572837591171265,1.1069730520248413,0.17521287500858307,0.4113125503063202,1.630729079246521,2.420258045196533
304840.3746928711,-0.08027719706296921,0.16237853467464447,1.137221097946167,1.615585207939148,0.7680327296257019,0.1124361902475357,0.9344844818115234,3.2227401733398438
304840.37869287113,-0.09105885028839111,0.17990398406982422,1.2932319641113281,1.8657941818237305,0.8740243315696716,0.08167317509651184,1.0507506132125854,3.8871641159057617
304840.38269287115,-0.02622227557003498,-0.06622613966464996,0.3649042248725891,1.0757642984390259,1.2352168560028076,0.8247460722923279,0.07572635263204575,-0.1328883320093155
304840.3866928711,-0.021669935435056686,-0.11262907832860947,0.2804030179977417,1.1047084331512451,1.7380980253219604,1.9109398126602173,1.1625808477401733,0.6237136125564575
304840.3906928711,-0.011210326105356216,-0.14815638959407806,0.12309921532869339,0.915102481842041,1.9977744817733765,2.9134294986724854,2.2860121726989746,1.6824976205825806
304840.39469287114,-0.011542198248207569,-0.1668141931295395,0.12725402414798737,1.0398695468902588,2.332371473312378,3.3607702255249023,2.6790077686309814,1.8723766803741455
304840.39869287115,0.027474774047732353,-0.06465336680412292,-0.08395907282829285,-0.08312740921974182,0.21737082302570343,0.8376487493515015,1.5093915462493896,1.7912087440490723
304840.4026928711,0.06671322137117386,-0.009228800423443317,-0.07757624983787537,-0.17926418781280518,-0.10952763259410858,0.4443609118461609,0.949669599533081,1.3970259428024292
304840.4066928711,0.10709673911333084,0.07130731642246246,-0.042651690542697906,-0.22899504005908966,-0.4352152347564697,-0.10147743672132492,0.14572268724441528,0.5380331873893738
304840.41069287114,0.12206060439348221,0.0797233060002327,-0.04730042442679405,-0.27523985505104065,-0.5615216493606567,-0.1604878008365631,0.017140164971351624,0.5769612789154053
304840.41469287116,0.10724501311779022,0.2070673257112503,0.29557329416275024,0.39654743671417236,0.5187762379646301,0.5345768928527832,0.7536800503730774,0.5953529477119446
304840.4186928711,0.1831684410572052,0.41464272141456604,0.6992754936218262,0.9768586754798889,1.3407069444656372,1.5562721490859985,2.0963692665100098,1.9124287366867065
304840.4226928711,0.2493574023246765,0.6130052208900452,1.10957932472229,1.5536625385284424,2.147496223449707,2.53974986076355,3.399601936340332,3.2189769744873047
304840.42669287114,0.28435277938842773,0.6996023654937744,1.2655143737792969,1.7827589511871338,2.4942359924316406,2.970383882522583,3.9803452491760254,3.7062392234802246
304840.43069287116,0.19108577072620392,0.5091056227684021,0.9091266393661499,1.103946566581726,1.146543264389038,1.0979278087615967,0.7139636278152466,-0.07880757749080658
304840.4346928711,0.2954922020435333,0.7772161364555359,1.2351621389389038,1.2271184921264648,1.0286072492599487,0.7073349952697754,0.3862428367137909,0.42484256625175476
304840.43869287113,0.37753280997276306,0.9808202981948853,1.4067469835281372,1.1411738395690918,0.6319085955619812,0.13426515460014343,-0.01824401319026947,1.4907170534133911
304840.44269287115,0.42960143089294434,1.1159381866455078,1.6086519956588745,1.295615315437317,0.7023228406906128,0.08104958385229111,-0.09468407928943634,1.44843590259552
304840.44669287116,0.2942419946193695,0.6079742312431335,0.43995919823646545,0.004586656112223864,-0.08690306544303894,0.5534957647323608,1.6199067831039429,3.5195021629333496
304840.4506928711,0.45278045535087585,0.8776434659957886,0.5258504152297974,-0.14376628398895264,-0.01054807472974062,1.4462127685546875,2.648099184036255,3.6852638721466064
304840.45469287114,0.5203703045845032,1.0100982189178467,0.6122945547103882,-0.15869200229644775,-0.061061106622219086,1.6551162004470825,3.1128642559051514,4.214408874511719
304840.45869287115,0.2958548367023468,0.4482978582382202,-0.02325046807527542,-0.23709094524383545,1.0029600858688354,2.022770643234253,0.6705270409584045,-0.4383225739002228
304840.4626928711,0.4250318109989166,0.5240017771720886,-0.07498408854007721,0.09929103404283524,1.6775047779083252,2.111865758895874,0.4138818681240082,0.07813741266727448
304840.4666928711,0.4660797715187073,0.4098561108112335,-0.12568101286888123,0.739632785320282,1.9846798181533813,1.2160367965698242,0.24259550869464874,1.5005954504013062
304840.47069287114,0.48400843143463135,0.26348456740379333,-0.1522880643606186,1.4019197225570679,2.0333821773529053,0.20707201957702637,0.5066731572151184,3.241319417953491
304840.47469287115,0.5189310312271118,0.24683500826358795,-0.19350960850715637,1.6464463472366333,2.233572006225586,-0.07948724925518036,0.44300714135169983,3.7618610858917236
304840.47869287117,0.30442309379577637,-0.019297894090414047,0.29345372319221497,1.2601208686828613,0.12326754629611969,0.6054812669754028,2.073906898498535,0.4577747583389282
304840.4826928711,0.45280805230140686,-0.06433039903640747,0.5696502923965454,1.7819609642028809,-0.09228621423244476,1.375178575515747,2.9423742294311523,-0.09306762367486954
304840.48669287114,0.5215994119644165,-0.07340110093355179,0.649020254611969,2.083024501800537,-0.11771997064352036,1.5387942790985107,3.473655939102173,-0.15871082246303558
304840.49069287116,0.2513323128223419,-0.08600901067256927,0.7335895895957947,0.5040905475616455,-0.13142621517181396,1.7980008125305176,-0.051006052643060684,1.1879485845565796
304840.4946928711,0.32757124304771423,-0.10671684145927429,1.144891381263733,0.30296891927719116,0.6420722603797913,1.7565709352493286,0.005836443975567818,2.243927240371704
304840.49869287113,0.3661736249923706,-0.11466553062200546,1.4418302774429321,-0.006222819443792105,1.5752341747283936,1.3449369668960571,0.30969172716140747,2.9832565784454346
304840.50269287114,0.41460803151130676,-0.1327967494726181,1.6586358547210693,-0.02375739999115467,1.8067119121551514,1.5410858392715454,0.23886966705322266,3.5125410556793213
304840.50669287116,0.17646951973438263,0.042455483227968216,0.7776423692703247,-0.2168014645576477,1.358244776725769,-0.2559709846973419,1.7561345100402832,0.12732070684432983
304840.5106928711,0.21922631561756134,0.17713026702404022,0.8531917333602905,0.11043659597635269,1.505383014678955,0.151131272315979,2.1322021484375,0.5205880999565125
304840.51469287113,0.23374824225902557,0.32769453525543213,0.7840039730072021,0.5491086840629578,1.3385998010635376,0.7839943766593933,2.1422653198242188,1.1919025182724
304840.51869287115,0.2649313509464264,0.3744806945323944,0.8884384036064148,0.6269177794456482,1.5294395685195923,0.8796353340148926,2.4479258060455322,1.1950914859771729
304840.52269287116,0.09315541386604309,0.37363898754119873,0.06622316688299179,0.9385747909545898,-0.03996787965297699,1.8739066123962402,-0.6051725149154663,2.355332136154175
304840.5266928711,0.09951937198638916,0.6323553323745728,-0.038588039577007294,1.448011040687561,-0.026394888758659363,2.0762693881988525,0.23704445362091064,2.019291639328003
304840.53069287114,0.08858434855937958,0.855468213558197,-0.1450543850660324,1.8108587265014648,0.06126140430569649,1.8512909412384033,1.3895325660705566,1.2018522024154663
304840.53469287115,0.09997729957103729,0.9722517728805542,-0.1868879646062851,2.0850932598114014,0.023927440866827965,2.1369173526763916,1.5977749824523926,1.2974956035614014
304840.53869287117,0.015349308028817177,0.5675402283668518,-0.07248356938362122,0.6485825181007385,0.9144535660743713,-0.3249981701374054,1.9072771072387695,0.4472813308238983
304840.5426928711,-0.0014950609765946865,0.7910322546958923,0.131389319896698,0.4791584610939026,1.705976128578186,-0.08718552440404892,1.5997769832611084,1.9398475885391235
304840.54669287114,-0.02437501586973667,0.9313570261001587,0.3783344328403473,0.15619607269763947,2.4043421745300293,0.3767765760421753,0.7334237694740295,3.3732666969299316
304840.55069287115,-0.028574271127581596,1.0620046854019165,0.4321734309196472,0.16767175495624542,2.766292095184326,0.372580885887146,0.834297239780426,4.033594608306885
304840.55469287117,-0.03274125978350639,0.46058422327041626,0.6255590319633484,-0.19872324168682098,0.7372139096260071,1.5249040126800537,0.019861716777086258,0.29853954911231995
304840.5586928711,-0.05702563375234604,0.5447260141372681,1.0417057275772095,-0.006104865577071905,0.4589173495769501,1.9250242710113525,1.269138216972351,0.4394490122795105
304840.56269287114,-0.07615511864423752,0.5521944165229797,1.377772569656372,0.28968262672424316,0.04470906779170036,2.0340428352355957,2.6888182163238525,0.9361782073974609
304840.56669287116,-0.08891147375106812,0.6264715194702148,1.5827229022979736,0.3142024874687195,0.0032115336507558823,2.35612416267395,3.1250789165496826,0.8615221381187439
304840.5706928712,-0.04859372228384018,0.1533067524433136,0.8324073553085327,0.8655195832252502,-0.017113927751779556,-0.07966525107622147,1.4760961532592773,3.440009593963623
304840.57469287113,-0.06415151804685593,0.10612364113330841,0.9811534285545349,1.4138766527175903,0.6517210006713867,-0.004949436988681555,0.7408990859985352,2.8123462200164795
304840.57869287115,-0.07213488221168518,0.02233477495610714,0.9700934886932373,1.8314450979232788,1.4420689344406128,0.20446498692035675,-0.2703668475151062,1.5246672630310059
304840.58269287116,-0.08170340210199356,0.0207296721637249,1.098233699798584,2.1238362789154053,1.6572682857513428,0.1381758451461792,-0.43220388889312744,1.6832232475280762
304840.5866928712,-0.019567959010601044,-0.060565073043107986,0.19775308668613434,0.8166534304618835,1.3995234966278076,1.4202333688735962,0.6788883805274963,0.18597272038459778
304840.59069287113,-0.004321277607232332,-0.089278943836689,0.08092313259840012,0.7095395922660828,1.497246265411377,2.0144455432891846,1.7239688634872437,1.610079288482666
304840.59469287115,0.01654662750661373,-0.10533414781093597,-0.07820316404104233,0.44622164964675903,1.3186521530151367,2.3155558109283447,2.6417179107666016,3.30562162399292
304840.59869287116,0.02001054212450981,-0.12353848665952682,-0.10728417336940765,0.4804513156414032,1.5105667114257812,2.6415741443634033,3.1150829792022705,3.802237033843994
304840.6026928712,0.046145204454660416,-0.028617126867175102,-0.11702755093574524,-0.2596176564693451,0.021567879244685173,0.07068078964948654,0.4337206482887268,0.8892340660095215
304840.60669287114,0.09527677297592163,0.0735056921839714,0.024869898334145546,-0.16593964397907257,0.04849473014473915,0.04231550171971321,0.10405875742435455,0.5530762076377869
304840.61069287115,0.14269350469112396,0.1991199404001236,0.20671646296977997,0.03724673390388489,0.14667055010795593,0.1147458404302597,-0.17523178458213806,0.2070472091436386
304840.61469287117,0.16240809857845306,0.22922849655151367,0.23803934454917908,0.038735806941986084,0.11146713048219681,0.11214756220579147,-0.2937197685241699,0.10818561911582947
304840.6186928712,0.15226569771766663,0.36841797828674316,0.6212292313575745,0.8796775937080383,1.186474084854126,1.5521693229675293,1.8983542919158936,1.8074777126312256
304840.62269287114,0.2452186793088913,0.6246793270111084,1.0857453346252441,1.520002841949463,2.1378653049468994,2.718775749206543,3.2590155601501465,2.8599653244018555
304840.62669287116,0.28161776065826416,0.7157810926437378,1.241054892539978,1.7386937141418457,2.4298336505889893,3.150954246520996,3.8153741359710693,3.3681230545043945
304840.6306928712,0.18876150250434875,0.507614016532898,0.871042788028717,1.1300299167633057,1.1938849687576294,1.1212877035140991,0.7533735632896423,0.19760119915008545
304840.6346928711,0.2935129404067993,0.7753052115440369,1.1716679334640503,1.2638736963272095,1.0030349493026733,0.753015398979187,0.30287715792655945,0.21869692206382751
304840.63869287114,0.3778114318847656,0.9753600358963013,1.3363581895828247,1.1759973764419556,0.5210388898849487,0.17717793583869934,-0.1795874983072281,0.5279249548912048
304840.64269287116,0.429496705532074,1.1178069114685059,1.517042875289917,1.3368914127349854,0.5838291645050049,0.16004255414009094,-0.38555648922920227,0.41065913438796997
304840.6466928712,0.2583828270435333,0.5847604274749756,0.4896502196788788,0.017153242602944374,-0.3009212911128998,0.28586018085479736,1.4630751609802246,2.1212306022644043
304840.65069287113,0.38055405020713806,0.7464889287948608,0.4391118288040161,-0.1485346406698227,0.11716078221797943,1.4679211378097534,2.541177749633789,1.8349051475524902
304840.65469287115,0.4719851315021515,0.8153258562088013,0.294072687625885,-0.29995158314704895,0.6875683069229126,2.742006301879883,3.417731285095215,0.9663041830062866
304840.65869287116,0.5354558229446411,0.9273642897605896,0.3209743797779083,-0.38176000118255615,0.7743711471557617,3.1768033504486084,3.868269681930542,1.127126932144165
304840.6626928712,0.294149249792099,0.31531453132629395,-0.12224244326353073,0.21199646592140198,1.3810834884643555,1.2062559127807617,-0.11055289208889008,0.11914413422346115
304840.66669287113,0.41186219453811646,0.3231053352355957,-0.16172905266284943,0.7632461190223694,1.7967355251312256,0.9398271441459656,0.04553531855344772,1.6108213663101196
304840.67069287115,0.4890235364437103,0.2690180838108063,-0.1613065004348755,1.3344799280166626,1.927257776260376,0.4456978142261505,0.47370344400405884,3.2119791507720947
304840.67469287117,0.5547500848770142,0.30380791425704956,-0.19321578741073608,1.5462082624435425,2.216839551925659,0.44754844903945923,0.4495665431022644,3.7631092071533203
304840.6786928712,0.2802441418170929,-0.0006221908843144774,0.17516076564788818,1.1396875381469727,0.2579205632209778,-0.05155413970351219,1.8378747701644897,0.7418310046195984
304840.68269287114,0.38197267055511475,-0.05055656284093857,0.5168920755386353,1.3884596824645996,0.10234017670154572,0.9905700087547302,1.9938104152679443,0.44247570633888245
304840.68669287115,0.44478100538253784,-0.10642550885677338,0.8814626932144165,1.420373558998108,-0.0602819062769413,2.195617198944092,1.6449649333953857,0.3029796779155731
304840.69069287117,0.5040814876556396,-0.12441479414701462,1.0050526857376099,1.6272605657577515,-0.10780826956033707,2.5137083530426025,1.9077998399734497,0.07961554080247879
304840.6946928712,0.23643086850643158,-0.10366031527519226,0.8482233285903931,0.19156673550605774,0.4514754116535187,1.4369128942489624,-0.2461070418357849,2.812649965286255
304840.69869287114,0.30474838614463806,-0.0836278647184372,1.204146146774292,-0.013522922992706299,1.2829227447509766,1.1398296356201172,0.6431922912597656,2.6721885204315186
304840.70269287116,0.33787354826927185,-0.03009025938808918,1.446067452430725,-0.2784457504749298,2.1031501293182373,0.5282689929008484,1.8290539979934692,1.9981977939605713
304840.7066928712,0.3826165497303009,-0.03870449587702751,1.6342120170593262,-0.3198992609977722,2.446044445037842,0.5448321104049683,2.0610175132751465,2.2855782508850098
304840.7106928712,0.1558508276939392,0.12030880898237228,0.6414554715156555,0.045725107192993164,1.182711124420166,-0.1516721099615097,1.7091789245605469,-0.42284050583839417
304840.71469287114,0.18914145231246948,0.29312533140182495,0.6107908487319946,0.5424116253852844,1.01073157787323,0.7797511219978333,1.4531188011169434,1.0315293073654175
304840.71869287116,0.1971708983182907,0.46960192918777466,0.45633524656295776,1.1130744218826294,0.575042724609375,1.9395744800567627,0.8185126185417175,2.8386073112487793
304840.7226928712,0.22312194108963013,0.5369889736175537,0.5085040926933289,1.2789366245269775,0.6286877393722534,2.2093536853790283,0.8531407713890076,3.275210380554199
304840.7266928712,0.06894170492887497,0.5378459692001343,-0.08669048547744751,1.2788829803466797,0.06722789257764816,1.3837593793869019,0.7708871960639954,1.2897237539291382
304840.73069287115,0.08671589940786362,0.8604689836502075,-0.19501814246177673,1.9027808904647827,0.22852161526679993,1.6782270669937134,1.7747489213943481,1.078999400138855
304840.73469287116,0.10093168169260025,0.986503005027771,-0.21848680078983307,2.190109968185425,0.23974068462848663,1.9633185863494873,1.978395938873291,1.2066792249679565
304840.7386928712,0.017938392236828804,0.5892592072486877,-0.05511784553527832,0.6427094340324402,1.0251376628875732,-0.04071890190243721,1.9688811302185059,0.3608473241329193
304840.74269287114,0.0042565627954900265,0.7973062992095947,0.12425307184457779,0.4988248944282532,1.750237226486206,0.1603674292564392,1.6095857620239258,1.6445785760879517
304840.74669287115,-0.014190022833645344,0.9175416827201843,0.36083823442459106,0.22312338650226593,2.318469524383545,0.5330238938331604,0.8434305787086487,2.8656938076019287
304840.75069287117,-0.017321379855275154,1.041981816291809,0.4108823537826538,0.229703888297081,2.6616342067718506,0.5548650622367859,0.9082787036895752,3.393059492111206
304840.7546928712,-0.036694880574941635,0.46553394198417664,0.6033142805099487,-0.21145272254943848,0.7488417029380798,1.6431902647018433,0.2032286375761032,0.37331944704055786
304840.75869287114,-0.055623333901166916,0.5511364340782166,1.043798804283142,-0.00031450073583982885,0.41503289341926575,2.0114147663116455,1.326954960823059,0.27076661586761475
304840.76269287115,-0.06941167265176773,0.5589292645454407,1.4274662733078003,0.32403165102005005,-0.11028622835874557,2.039975643157959,2.5910537242889404,0.38395315408706665
304840.76669287117,-0.07886193692684174,0.634267270565033,1.634196162223816,0.3663637936115265,-0.14319251477718353,2.3333518505096436,3.0245089530944824,0.2791711091995239
304840.7706928712,-0.05059247836470604,0.15084663033485413,0.8202615976333618,0.8845559358596802,0.033061396330595016,0.023630008101463318,1.4094600677490234,2.0496013164520264
304840.77469287114,-0.06126701831817627,0.10841718316078186,0.9747412800788879,1.4597020149230957,0.754655659198761,-0.002687548054382205,0.9425764083862305,2.308291435241699
304840.77869287116,-0.06256028264760971,0.0315915010869503,0.9717034697532654,1.9304202795028687,1.5909045934677124,0.10123465955257416,0.211131751537323,1.9485386610031128
304840.7826928712,-0.07180801779031754,0.033987876027822495,1.1025364398956299,2.194329023361206,1.8187330961227417,0.023833565413951874,0.1775583028793335,2.2584545612335205
304840.7866928712,-0.019154256209731102,-0.1113225594162941,0.17566688358783722,0.7948316335678101,1.5417698621749878,1.4769279956817627,0.7183080911636353,-0.20701093971729279
304840.79069287115,-0.006693584844470024,-0.15383413434028625,0.045336563140153885,0.6969375610351562,1.6732317209243774,2.1041877269744873,2.6543655395507812,1.3565572500228882
304840.79469287116,0.010544979013502598,-0.1780174970626831,-0.12059206515550613,0.43394243717193604,1.4591739177703857,2.416815757751465,4.799134731292725,3.1899702548980713
304840.7986928712,0.011705405078828335,-0.19983921945095062,-0.15045151114463806,0.47076699137687683,1.661018967628479,2.8477702140808105,5.404231071472168,3.697643756866455
304840.8026928712,0.046827830374240875,-0.012640825472772121,-0.12753555178642273,-0.09436042606830597,-0.014062155038118362,0.09153980016708374,0.9963828325271606,1.070573091506958
304840.80669287115,0.09520313888788223,0.0841025859117508,-0.004117764998227358,-0.00022606128186453134,-0.033880528062582016,-0.03128509968519211,0.39891746640205383,0.7691572904586792
304840.81069287116,0.1421714723110199,0.19879184663295746,0.16804702579975128,0.16421687602996826,0.010471799410879612,-0.03917822614312172,-0.17088063061237335,0.4053487479686737
304840.8146928712,0.1624801903963089,0.22584472596645355,0.18278095126152039,0.1774507462978363,-0.03127208352088928,-0.13483552634716034,-0.3604446351528168,0.30592459440231323
304840.8186928712,0.12859494984149933,0.2875462770462036,0.4925321340560913,0.7319238185882568,1.0254909992218018,1.1996327638626099,1.5966678857803345,2.5858287811279297
304840.82269287115,0.2132522165775299,0.5258462429046631,0.9286538362503052,1.337095856666565,1.8243777751922607,2.033266067504883,2.328596830368042,2.7637746334075928
304840.82669287117,0.285575270652771,0.7456105351448059,1.3255208730697632,1.8488534688949585,2.4540069103240967,2.665752649307251,2.677793502807617,2.4331812858581543
304840.8306928712,0.3255062997341156,0.8477768898010254,1.5116767883300781,2.1420130729675293,2.84775972366333,3.0905215740203857,3.1916375160217285,2.8360259532928467
304840.8346928712,0.23997919261455536,0.6159508228302002,0.9070956110954285,0.9096716046333313,0.6774285435676575,0.230258971452713,-0.1093076765537262,0.17972812056541443
304840.83869287116,0.3735811412334442,0.9615986943244934,1.2829804420471191,1.1576318740844727,0.6439255475997925,0.09223982691764832,-0.07596712559461594,0.8662827014923096
304840.84269287117,0.4302968978881836,1.1049295663833618,1.4850679636001587,1.3549740314483643,0.7453129291534424,0.047019049525260925,-0.1415407657623291,0.9533832669258118
304840.8466928712,0.2603597044944763,0.6063082218170166,0.5671312808990479,-0.020546672865748405,-0.2784903943538666,0.1735510677099228,3.2782952785491943,5.187713623046875
304840.85069287114,0.38607800006866455,0.7993881702423096,0.5570870041847229,-0.10835754126310349,0.03906835615634918,0.9988071322441101,4.1703972816467285,5.1872944831848145
304840.85469287116,0.43987080454826355,0.7627197504043579,0.2831219732761383,-0.11874771863222122,0.7647824287414551,1.959702491760254,3.213782787322998,2.5312297344207764
304840.8586928712,0.4733232259750366,0.6700881719589233,-0.0013805263442918658,-0.02135724015533924,1.6096916198730469,2.7331438064575195,1.6254913806915283,-0.3166482746601105
304840.8626928712,0.5087339878082275,0.6940891146659851,-0.08378943800926208,-0.025882937014102936,1.8619060516357422,3.1356399059295654,1.425244927406311,-1.1342997550964355
304840.8666928712,0.31558600068092346,0.2200583964586258,-0.16035199165344238,0.7343648672103882,1.4325027465820312,0.27073973417282104,0.2705628275871277,1.471911072731018
304840.87069287116,0.473355770111084,0.2678343951702118,-0.19240440428256989,1.352585792541504,1.9174294471740723,-0.1275710165500641,0.8192151188850403,2.6818387508392334
304840.8746928712,0.54570072889328,0.3104788362979889,-0.22294393181800842,1.5459481477737427,2.2371301651000977,-0.1489066481590271,0.9093062877655029,3.1448705196380615
304840.8786928712,0.28291478753089905,0.0014741553459316492,0.17909468710422516,1.2586543560028076,0.3185247480869293,-0.012491405010223389,1.9862501621246338,0.7583499550819397
304840.88269287115,0.38511893153190613,-0.0680723786354065,0.5237900018692017,1.5160973072052002,0.1146484836935997,0.9944130182266235,2.1163222789764404,0.4966069757938385
304840.88669287116,0.44551730155944824,-0.14840281009674072,0.8869798183441162,1.5237457752227783,-0.16676528751850128,2.099287509918213,1.7898157835006714,0.25355130434036255
304840.8906928712,0.5072847008705139,-0.16804513335227966,1.0143451690673828,1.7419476509094238,-0.19801101088523865,2.4478743076324463,2.069561719894409,0.21565650403499603
304840.8946928712,0.23012574017047882,-0.09942490607500076,0.8467742800712585,0.14536218345165253,0.4134751856327057,1.3586050271987915,-0.16837617754936218,1.8861149549484253
304840.89869287115,0.2998265326023102,-0.08872415125370026,1.1859931945800781,-0.09306924790143967,1.292553186416626,1.0581127405166626,0.5225138664245605,2.17409610748291
304840.90269287117,0.334650456905365,-0.04936205595731735,1.4145965576171875,-0.34713292121887207,2.1977109909057617,0.3920309543609619,1.4711755514144897,1.8640550374984741
304840.9066928712,0.3802047371864319,-0.055412519723176956,1.6011810302734375,-0.422097384929657,2.530827045440674,0.432765394449234,1.684588074684143,2.2507312297821045
304840.9106928712,0.15509718656539917,0.12003422528505325,0.6365181803703308,-0.0002922206185758114,1.0737210512161255,-0.13796940445899963,1.9485734701156616,-0.35167714953422546
304840.91469287116,0.18790043890476227,0.2963717579841614,0.6179503798484802,0.5439276099205017,0.946566641330719,0.7017449140548706,1.5779629945755005,1.0048792362213135
304840.9186928712,0.19550994038581848,0.4773964583873749,0.47970134019851685,1.1701141595840454,0.5708127021789551,1.7178356647491455,0.8551393151283264,2.606839895248413
304840.9226928712,0.22141653299331665,0.545124888420105,0.5341054201126099,1.3408743143081665,0.6426080465316772,1.9855306148529053,0.901016116142273,3.04431414604187
304840.9266928712,0.07030443102121353,0.4503657817840576,-0.047496166080236435,1.140767216682434,-0.15425874292850494,1.5091652870178223,0.085828498005867,1.3275057077407837
304840.93069287116,0.06977733969688416,0.717368483543396,-0.13341261446475983,1.4535777568817139,0.19917289912700653,1.2774211168289185,1.309863567352295,0.9177345037460327
304840.9346928712,0.05572735145688057,0.9273627996444702,-0.188561350107193,1.584389090538025,0.6894596815109253,0.6987125873565674,2.6182401180267334,0.311350554227829
304840.9386928712,0.06310522556304932,1.05965256690979,-0.23495720326900482,1.8053669929504395,0.772301971912384,0.7786982655525208,3.1028199195861816,0.26917651295661926
304840.9426928712,0.0009219400235451758,0.5720345973968506,0.08449854701757431,0.35242733359336853,1.4826979637145996,-0.055165570229291916,1.1217442750930786,1.4580793380737305
304840.94669287116,-0.02042742818593979,0.7797767519950867,0.3692449927330017,0.13112978637218475,1.9665061235427856,0.7047141194343567,0.5685200095176697,2.2376320362091064
304840.9506928712,-0.04596937820315361,0.8981146812438965,0.6934763789176941,-0.1630922108888626,2.150261878967285,1.6457850933074951,-0.21797415614128113,2.645951509475708
304840.9546928712,-0.05231514573097229,1.0258052349090576,0.789908230304718,-0.2262873351573944,2.4897356033325195,1.8623340129852295,-0.31194809079170227,3.1701667308807373
304840.9586928712,-0.04173969104886055,0.39906251430511475,0.7635027170181274,-0.11560852080583572,0.20794112980365753,1.5944240093231201,0.9928103089332581,0.022502457723021507
304840.96269287117,-0.06553943455219269,0.442084401845932,1.1369589567184448,0.3385695219039917,0.06267807632684708,1.5152071714401245,2.065109968185425,1.718748927116394
304840.9666928712,-0.08436830341815948,0.4162213206291199,1.4089621305465698,0.8804686069488525,-0.0844031497836113,1.0656697750091553,2.9387319087982178,3.93937087059021
304840.9706928712,-0.09685089439153671,0.4695873558521271,1.6143333911895752,1.0085262060165405,-0.11532970517873764,1.2106173038482666,3.461815118789673,4.389187812805176
304840.9746928712,-0.04562130942940712,0.05818025767803192,0.7186840176582336,1.207511305809021,0.7823101282119751,-0.1976415067911148,0.1264677494764328,2.6700034141540527
304840.97869287117,-0.06194160878658295,0.04248649626970291,0.9322958588600159,1.8708109855651855,1.5921746492385864,0.02858136221766472,-0.3762969374656677,2.2523951530456543
304840.9826928712,-0.07051132619380951,0.0479227751493454,1.074282169342041,2.186946392059326,1.8107047080993652,-0.015787405893206596,-0.44303980469703674,2.512181282043457
304840.9866928712,-0.020528098568320274,-0.08148586750030518,0.17087212204933167,0.8044737577438354,1.3026398420333862,1.411024570465088,1.449156403541565,-0.32344135642051697
304840.99069287116,-0.0081073809415102,-0.1406971663236618,0.02348099835216999,0.6924996376037598,1.4451613426208496,2.103274345397949,2.7410430908203125,1.013522982597351
304840.9946928712,0.009469996206462383,-0.18091008067131042,-0.16909664869308472,0.40664952993392944,1.2994481325149536,2.498502731323242,3.711907386779785,2.5606749057769775
304840.9986928712,0.010763002559542656,-0.2110282927751541,-0.2012060135602951,0.44559183716773987,1.5003589391708374,2.92397141456604,4.282974720001221,2.9932522773742676
304841.0026928712,0.044947549700737,-0.032237205654382706,-0.15501278638839722,-0.219503715634346,-0.06419511884450912,0.11501879245042801,0.4309476613998413,0.8787462711334229
304841.00669287116,0.0944768562912941,0.06943289190530777,-0.0419713519513607,-0.12147606909275055,-0.007220495026558638,-0.017304688692092896,0.137016162276268,0.2737025022506714
304841.0106928712,0.14282295107841492,0.19064116477966309,0.14071081578731537,0.07492160052061081,0.12267056107521057,-0.05555130913853645,-0.07302575558423996,-0.31936800479888916
304841.0146928712,0.1628655195236206,0.21942882239818573,0.15573175251483917,0.07177982479333878,0.11318051069974899,-0.1565379500389099,-0.17663845419883728,-0.5763199329376221
304841.0186928712,0.12906287610530853,0.29658088088035583,0.4758366048336029,0.6698503494262695,1.0087862014770508,1.278648853302002,1.48992919921875,1.667832374572754
304841.02269287116,0.21371406316757202,0.53058922290802,0.8804199695587158,1.2806395292282104,1.8010369539260864,2.015829086303711,2.293217182159424,2.115053415298462
304841.0266928712,0.285718709230423,0.7348878383636475,1.241172432899475,1.8500750064849854,2.417841672897339,2.4983766078948975,2.7137610912323,2.135075330734253
304841.0306928712,0.32569971680641174,0.8429433703422546,1.4258722066879272,2.10329532623291,2.822295904159546,2.868844985961914,3.2312638759613037,2.521097421646118
304841.0346928712,0.20798750221729279,0.5620164275169373,0.8517006635665894,0.9031792879104614,0.7377197742462158,0.34061917662620544,-0.32559821009635925,-0.10423574596643448
304841.03869287117,0.3198191225528717,0.8169060349464417,1.08935546875,0.8839545845985413,0.4127826988697052,0.04314493015408516,0.0017366178799420595,1.1685702800750732
304841.0426928712,0.40799006819725037,0.9951561689376831,1.1732449531555176,0.6742813587188721,-0.08831577003002167,-0.2622276544570923,0.6050471663475037,2.7534468173980713
304841.0466928712,0.4641546607017517,1.1381481885910034,1.3333160877227783,0.7576785087585449,-0.12828446924686432,-0.37701770663261414,0.5997637510299683,3.0919182300567627
304841.0506928712,0.2672308087348938,0.5447872281074524,0.30516740679740906,-0.1642557978630066,-0.09511573612689972,1.065284252166748,2.1308445930480957,1.9102689027786255
304841.05469287117,0.39305704832077026,0.659626305103302,0.167766273021698,-0.20251482725143433,0.6683490872383118,1.9846071004867554,2.087953567504883,1.4232982397079468
304841.0586928712,0.4859146177768707,0.6830320358276367,-0.04200884699821472,-0.14624862372875214,1.575844407081604,2.735199451446533,1.462408423423767,0.6838014721870422
304841.0626928712,0.550765872001648,0.7721640467643738,-0.06136186793446541,-0.19263339042663574,1.7973721027374268,3.142735719680786,1.6819777488708496,0.6480129957199097
304841.0666928712,0.2877402901649475,0.23654501140117645,-0.18352337181568146,0.5295554995536804,1.2822036743164062,0.6315411329269409,-0.06876832991838455,1.1702935695648193
304841.0706928712,0.40575364232063293,0.20493225753307343,-0.13104189932346344,1.1353671550750732,1.4456807374954224,0.26611435413360596,0.8591561317443848,2.045488119125366
304841.0746928712,0.4836902320384979,0.12356556206941605,-0.019979281350970268,1.7055705785751343,1.3279316425323486,-0.22667032480239868,2.00996732711792,2.661073923110962
304841.0786928712,0.5517388582229614,0.13558286428451538,-0.033100444823503494,1.9685276746749878,1.5254546403884888,-0.29505231976509094,2.278085231781006,3.1029093265533447
304841.0826928712,0.2737518846988678,-0.05537163466215134,0.3518068194389343,1.0387632846832275,-0.13570667803287506,0.8014086484909058,1.8002188205718994,-0.038547709584236145
304841.0866928712,0.36749017238616943,-0.10900367796421051,0.7395359873771667,1.08719003200531,-0.1175626590847969,1.898100733757019,1.2616350650787354,1.2754781246185303
304841.0906928712,0.42331820726394653,-0.15490084886550903,1.1094709634780884,0.9135827422142029,0.01879783719778061,2.9146132469177246,0.2305850088596344,3.1484975814819336
304841.0946928712,0.4791046679019928,-0.18546806275844574,1.2697585821151733,1.0348173379898071,0.02336568757891655,3.3868305683135986,0.2564535140991211,3.4312593936920166
304841.0986928712,0.21659284830093384,-0.05902082845568657,0.8716520071029663,-0.0471561998128891,1.0341469049453735,0.8157843351364136,0.028632357716560364,3.0950071811676025
304841.1026928712,0.27646464109420776,0.0011087703751400113,1.1461704969406128,-0.10784942656755447,1.8622182607650757,0.5296053886413574,1.3690359592437744,1.9663574695587158
304841.1066928712,0.304014652967453,0.08681847155094147,1.2911909818649292,-0.13383521139621735,2.5201456546783447,0.1060049757361412,2.823984384536743,0.2788386046886444
304841.1106928712,0.3443434238433838,0.09968063980340958,1.4648524522781372,-0.16020749509334564,2.9241487979888916,0.07269014418125153,3.2718400955200195,0.20834651589393616
304841.1146928712,0.1344796121120453,0.2026669830083847,0.4352644085884094,0.3835619390010834,0.7145465612411499,0.4950096607208252,1.1415271759033203,0.8352373242378235
304841.1186928712,0.15802378952503204,0.40982410311698914,0.3473917543888092,0.9882297515869141,0.41036030650138855,1.4937682151794434,0.4092397391796112,2.308109760284424
304841.1226928712,0.1591273546218872,0.6058174967765808,0.1611711084842682,1.5988366603851318,-0.04672182351350784,2.4750988483428955,-0.5715488791465759,3.6617252826690674
304841.1266928712,0.17993763089179993,0.693446695804596,0.17914432287216187,1.8378777503967285,-0.10587406158447266,2.8717520236968994,-0.7364704012870789,4.303716659545898
304841.13069287123,0.05281314253807068,0.5253326892852783,-0.1663188934326172,1.0724023580551147,0.05480274558067322,0.9575888514518738,1.2934268712997437,0.15568462014198303
304841.1346928712,0.04426351562142372,0.7638020515441895,-0.1643829345703125,1.2135696411132812,0.7138065695762634,0.6387529969215393,2.228370189666748,0.3360291123390198
304841.1386928712,0.024372436106204987,0.9341679811477661,-0.12823231518268585,1.1452438831329346,1.4649606943130493,0.12503279745578766,2.9924886226654053,0.8013066649436951
304841.1426928712,0.026683801785111427,1.060553789138794,-0.14892491698265076,1.3022892475128174,1.6772117614746094,0.10364079475402832,3.4798550605773926,0.8395326137542725
304841.14669287123,-0.012558073736727238,0.568401038646698,0.2462485432624817,0.09080534428358078,1.4110075235366821,0.25273481011390686,0.4254617393016815,2.2407469749450684
304841.1506928712,-0.03628157079219818,0.733007550239563,0.597731351852417,-0.04986691474914551,1.5766907930374146,1.3045499324798584,0.42815059423446655,1.93913733959198
304841.1546928712,-0.06142660975456238,0.8113576173782349,0.9478744268417358,-0.20271937549114227,1.4101253747940063,2.438678026199341,0.4615904688835144,1.023820400238037
304841.1586928712,-0.06916096806526184,0.9214688539505005,1.090234637260437,-0.24688178300857544,1.6262876987457275,2.801604747772217,0.473275750875473,1.180938720703125
304841.16269287124,-0.0529494434595108,0.31153810024261475,0.9409680962562561,0.4146050810813904,-0.08153670281171799,1.0214945077896118,2.0612270832061768,0.5114396214485168
304841.1666928712,-0.07780754566192627,0.4034664034843445,1.4313808679580688,0.8413326144218445,-0.19415515661239624,0.9851367473602295,3.269998788833618,1.7586263418197632
304841.1706928712,-0.08890269696712494,0.46745067834854126,1.6548573970794678,0.9578325152397156,-0.22911782562732697,1.165103793144226,3.857637643814087,2.005333662033081
304841.1746928712,-0.04927036538720131,0.06715818494558334,0.6941438913345337,1.009075403213501,0.41175082325935364,-0.14337125420570374,0.30252254009246826,2.0298867225646973
304841.1786928712,-0.0566817931830883,0.00273987278342247,0.7462686896324158,1.459942102432251,1.3058977127075195,0.4273507297039032,0.1149013489484787,1.293251872062683
304841.1826928712,-0.05623843893408775,-0.08007215708494186,0.6557703614234924,1.7419297695159912,2.2217557430267334,1.1997243165969849,0.051923736929893494,0.17768149077892303
304841.1866928712,-0.06457342952489853,-0.09628311544656754,0.7427155375480652,1.9933397769927979,2.5509166717529297,1.346825361251831,-0.02872881107032299,0.04059825465083122
304841.1906928712,-0.007554774172604084,-0.11112335324287415,-0.004165099002420902,0.4890938699245453,1.3265126943588257,1.6195262670516968,1.5640884637832642,1.0992674827575684
304841.1946928712,0.01505499891936779,-0.1156669557094574,-0.08413386344909668,0.25827890634536743,1.1403882503509521,1.7295011281967163,2.23762845993042,2.34393310546875
304841.1986928712,0.04385632276535034,-0.10396286100149155,-0.16273602843284607,-0.09198521077632904,0.6927955746650696,1.4767190217971802,2.505048990249634,3.3432748317718506
304841.2026928712,0.04978835582733154,-0.11391647160053253,-0.19531193375587463,-0.12305571138858795,0.7490359544754028,1.6895395517349243,2.9628660678863525,3.897672653198242
304841.20669287123,0.06434508413076401,0.031736988574266434,-0.021544240415096283,-0.09584750980138779,-0.15209472179412842,-0.21649068593978882,-0.08140073716640472,-0.1964927762746811
304841.2106928712,0.12288806587457657,0.17304441332817078,0.19788990914821625,0.2154798060655594,0.20480342209339142,0.14061681926250458,0.3278537690639496,0.8045562505722046
304841.2146928712,0.17757317423820496,0.32978397607803345,0.46498239040374756,0.6161455512046814,0.713899552822113,0.7566463947296143,0.9252725839614868,2.41575026512146
304841.2186928712,0.20239964127540588,0.37910154461860657,0.5303899645805359,0.6988817453384399,0.8089404106140137,0.8320980072021484,0.9754948616027832,2.5041089057922363
304841.22269287123,0.15075401961803436,0.38103312253952026,0.6867527961730957,1.0133953094482422,1.3010222911834717,1.7408806085586548,2.010958671569824,3.4899072647094727
304841.2266928712,0.24215106666088104,0.6352598667144775,1.1142499446868896,1.5014185905456543,1.7522386312484741,2.0713577270507812,1.8245353698730469,2.567420721054077
304841.2306928712,0.3177605867385864,0.8507987260818481,1.4440217018127441,1.8237895965576172,1.9285268783569336,1.9582706689834595,1.1477313041687012,1.0667874813079834
304841.2346928712,0.3617503046989441,0.9681775569915771,1.6613463163375854,2.091982126235962,2.227158308029175,2.2662291526794434,1.33682382106781,1.0522847175598145
304841.23869287124,0.2263292819261551,0.5840179324150085,0.789608895778656,0.6741816401481628,0.20119713246822357,-0.16105327010154724,-0.24611501395702362,0.6420055627822876
304841.2426928712,0.342486709356308,0.8121874332427979,0.8944125771522522,0.4801238477230072,-0.12535153329372406,0.1522303968667984,0.6445142030715942,2.118765354156494
304841.2466928712,0.43032318353652954,0.9578167200088501,0.853628396987915,0.13389480113983154,-0.45074909925460815,0.5989363193511963,1.7911992073059082,3.5935866832733154
304841.2506928712,0.49056169390678406,1.0880109071731567,0.9648531675338745,0.13374489545822144,-0.5597823858261108,0.6436502933502197,2.0842654705047607,4.246052265167236
304841.25469287124,0.2830171585083008,0.4838879108428955,0.14494289457798004,-0.12617264688014984,0.518970787525177,1.8060989379882812,1.526261329650879,0.3269698917865753
304841.2586928712,0.4080384373664856,0.5633853673934937,0.013899417594075203,0.07221469283103943,1.2471091747283936,2.1850156784057617,1.15578031539917,0.13279518485069275
304841.2626928712,0.4972909688949585,0.5601321458816528,-0.1667785346508026,0.3568827509880066,1.9384710788726807,2.14681077003479,0.38200947642326355,0.18568822741508484
304841.2666928712,0.563862681388855,0.63332200050354,-0.18732568621635437,0.39569777250289917,2.2495830059051514,2.4531946182250977,0.455379456281662,0.007947158999741077
304841.27069287124,0.28774216771125793,0.15093198418617249,-0.11441782116889954,0.911381185054779,1.2438807487487793,-0.12528128921985626,0.415383517742157,2.0321974754333496
304841.2746928712,0.4060344994068146,0.1038518100976944,0.06230045109987259,1.500158667564392,1.0299510955810547,-0.06009054556488991,1.542868733406067,1.978277325630188
304841.2786928712,0.4858846366405487,0.02118806727230549,0.2889981269836426,1.9703617095947266,0.526569664478302,0.19044668972492218,2.6600003242492676,1.4249099493026733
304841.28269287123,0.5528391003608704,0.023987678810954094,0.3356904089450836,2.245025157928467,0.5777727365493774,0.1444011926651001,3.1273608207702637,1.6717417240142822
304841.28669287125,0.25930535793304443,-0.06830543279647827,0.55010586977005,0.8668453097343445,-0.3116096556186676,1.4325751066207886,0.8643149137496948,-0.18328726291656494
304841.2906928712,0.34684476256370544,-0.11011815816164017,0.9737950563430786,0.7227484583854675,0.1044006198644638,2.0813000202178955,0.4776309132575989,1.5097167491912842
304841.2946928712,0.39727869629859924,-0.14296750724315643,1.3457286357879639,0.41057437658309937,0.6807225346565247,2.4038195610046387,-0.015720603987574577,3.460066795349121
304841.29869287123,0.45196467638015747,-0.16562244296073914,1.5439420938491821,0.4416173994541168,0.7834413051605225,2.845141887664795,-0.08140566945075989,4.003829002380371
304841.30269287125,0.19792167842388153,-0.022642647847533226,0.8181020021438599,-0.28324824571609497,1.4612449407577515,0.06717387586832047,1.1375653743743896,1.2470120191574097
304841.3066928712,0.2484189122915268,0.07519135624170303,1.006788730621338,-0.13360518217086792,1.9305179119110107,0.045429978519678116,1.9986788034439087,0.9408215880393982
304841.3106928712,0.26826098561286926,0.19378896057605743,1.0399447679519653,0.11751044541597366,2.114105701446533,0.09243962913751602,2.603627920150757,0.5191667079925537
304841.31469287124,0.30373361706733704,0.22352497279644012,1.1836612224578857,0.13285063207149506,2.424659252166748,0.09089046716690063,3.042144536972046,0.49499034881591797
304841.31869287125,0.11317242681980133,0.3613382577896118,0.18809418380260468,0.862559974193573,0.11831678450107574,1.3897998332977295,0.10920002311468124,1.97999906539917
304841.3226928712,0.153400257229805,0.6098148226737976,0.1394307166337967,1.4545398950576782,-0.09420622885227203,2.2901432514190674,-0.06931060552597046,3.236143112182617
304841.3266928712,0.17719823122024536,0.697991132736206,0.16988688707351685,1.6763434410095215,-0.11676362156867981,2.6676952838897705,-0.08255122601985931,3.7777655124664307
304841.33069287124,0.053203728049993515,0.5199894309043884,-0.14029327034950256,1.1374980211257935,-0.08481284230947495,0.934800922870636,0.97725510597229,0.26097580790519714
304841.3346928712,0.04559266194701195,0.7743623852729797,-0.16299884021282196,1.2796088457107544,0.5953635573387146,0.6310629844665527,2.0231151580810547,0.656262218952179
304841.3386928712,0.02610715851187706,0.9624589681625366,-0.14317025244235992,1.1846624612808228,1.381164312362671,0.16336195170879364,2.8359718322753906,1.3736507892608643
304841.3426928712,0.02892533503472805,1.0913352966308594,-0.16115902364253998,1.3418315649032593,1.6080435514450073,0.1242687925696373,3.3917386531829834,1.285392165184021
304841.34669287124,-0.01666366495192051,0.5712288618087769,0.24099166691303253,0.06036936864256859,1.4950064420700073,0.25872331857681274,0.25552991032600403,3.6751532554626465
304841.3506928712,-0.0428851954638958,0.7217637300491333,0.6148496270179749,-0.05300241708755493,1.575346827507019,1.1638741493225098,0.1006120815873146,2.8240134716033936
304841.3546928712,-0.0691777691245079,0.7880980372428894,0.9983919262886047,-0.1446923464536667,1.339677095413208,2.0877859592437744,0.051231034100055695,1.1856249570846558
304841.35869287123,-0.07955236732959747,0.8947914838790894,1.1432088613510132,-0.19016698002815247,1.522007703781128,2.426607370376587,-0.07613536715507507,1.2694251537322998
304841.36269287125,-0.05252484604716301,0.3179309666156769,0.7926993370056152,0.19679805636405945,-0.13322626054286957,1.3194767236709595,1.9213660955429077,-0.08799397945404053
304841.3666928712,-0.07065451145172119,0.33066362142562866,1.1473815441131592,0.7603695392608643,0.00458955904468894,0.813321590423584,2.4715664386749268,1.4889649152755737
304841.3706928712,-0.08046600222587585,0.2840994894504547,1.3847514390945435,1.3622822761535645,0.20128580927848816,0.025747021660208702,2.504305124282837,3.164931535720825
304841.37469287124,-0.09173973649740219,0.3188639283180237,1.5906718969345093,1.5601089000701904,0.2206200659275055,-0.04742521047592163,2.949160575866699,3.753749370574951
304841.37869287125,-0.040172647684812546,-0.005841789301484823,0.5582456588745117,1.2133630514144897,0.9801281690597534,0.026886632665991783,-0.5062437057495117,0.5967822670936584
304841.3826928712,-0.04652563855051994,-0.07573360204696655,0.5094863772392273,1.3907077312469482,1.769748330116272,1.0294889211654663,0.14302854239940643,0.1920139640569687
304841.3866928712,-0.0441146194934845,-0.15016308426856995,0.343463659286499,1.360674262046814,2.4247043132781982,2.125776767730713,1.1003811359405518,-0.0515427365899086
304841.39069287124,-0.050316497683525085,-0.17716732621192932,0.3850319981575012,1.5375243425369263,2.7706799507141113,2.489729404449463,1.257813811302185,-0.25921034812927246
304841.39469287125,0.011093584820628166,-0.08202826231718063,-0.10105017572641373,0.17857235670089722,0.7779324650764465,1.6424974203109741,2.029290199279785,1.8321410417556763
304841.3986928712,0.04294011369347572,-0.06293827295303345,-0.17144444584846497,-0.05803376063704491,0.5501982569694519,1.1851065158843994,2.115165948867798,2.053051710128784
304841.4026928712,0.07710078358650208,-0.019669534638524055,-0.22782546281814575,-0.3302595913410187,0.1870468556880951,0.323247492313385,1.5446009635925293,1.7292271852493286
304841.40669287124,0.0882636234164238,-0.023841790854930878,-0.2594599723815918,-0.40082472562789917,0.17247730493545532,0.35427528619766235,1.9374643564224243,2.107837677001953
304841.41069287126,0.08730867505073547,0.1270011067390442,0.1269843429327011,0.0806950181722641,0.05105682834982872,-0.11022316664457321,-0.31701716780662537,-0.3266426920890808
304841.4146928712,0.15409699082374573,0.298066109418869,0.4292117953300476,0.5509142279624939,0.752794086933136,0.7395249009132385,0.9041120409965515,1.0645431280136108
304841.41869287123,0.2143021672964096,0.4727988541126251,0.7498664855957031,1.0908018350601196,1.5658823251724243,1.7521169185638428,2.337467670440674,2.661578416824341
304841.42269287125,0.24412985146045685,0.5398266911506653,0.8594325184822083,1.251631736755371,1.7895019054412842,2.0430727005004883,2.6883270740509033,3.1124699115753174
304841.42669287126,0.17136681079864502,0.441550076007843,0.7566006183624268,1.0396696329116821,1.2783691883087158,1.7119680643081665,1.5080783367156982,1.503244161605835
304841.4306928712,0.2720876932144165,0.6973528265953064,1.1188545227050781,1.3822566270828247,1.4395389556884766,1.4623969793319702,0.9312258362770081,1.0013535022735596
304841.43469287123,0.35492411255836487,0.8998139500617981,1.3726733922958374,1.5421862602233887,1.3255243301391602,0.8064618706703186,-0.05685785412788391,0.30795586109161377
304841.43869287125,0.4032500088214874,1.0242516994476318,1.5632240772247314,1.764989972114563,1.52415931224823,0.8906394243240356,-0.0723663792014122,0.27236732840538025
304841.44269287126,0.2771289348602295,0.6217799782752991,0.6444358229637146,0.267187237739563,-0.10448013246059418,0.05013683810830116,1.0733740329742432,1.9499913454055786
304841.4466928712,0.43257513642311096,0.9274763464927673,0.8433926105499268,0.18998292088508606,-0.19859936833381653,0.4221119284629822,2.2669405937194824,3.4084692001342773
304841.45069287124,0.49777549505233765,1.0759682655334473,0.9820824265480042,0.22732692956924438,-0.292736679315567,0.4085748791694641,2.5629043579101562,3.9828009605407715
304841.45469287125,0.27717339992523193,0.4535139799118042,0.13075827062129974,-0.1327153742313385,0.401195764541626,1.5046480894088745,1.6209135055541992,0.4223209321498871
304841.4586928712,0.3979893922805786,0.5414680242538452,0.002936199540272355,0.07105176150798798,1.3294907808303833,2.0115036964416504,1.070737361907959,0.4736096262931824
304841.4626928712,0.48366817831993103,0.551715075969696,-0.1715315580368042,0.355610728263855,2.2807095050811768,2.1848340034484863,0.15782885253429413,0.8344371318817139
304841.46669287124,0.548941969871521,0.6259809732437134,-0.20042657852172852,0.38855352997779846,2.6445963382720947,2.5714211463928223,0.10036244243383408,0.6477905511856079
304841.47069287125,0.28679853677749634,0.15398448705673218,-0.10882576555013657,0.8214653730392456,1.1451178789138794,-0.1176786869764328,0.4433799982070923,3.5631532669067383
304841.4746928712,0.39969930052757263,0.10342791676521301,0.047256335616111755,1.3720883131027222,1.0156606435775757,-0.05806289240717888,1.6514164209365845,2.7799935340881348
304841.4786928712,0.47449713945388794,0.016747312620282173,0.26094576716423035,1.8340660333633423,0.6051838994026184,0.1471291333436966,2.878357410430908,1.354615569114685
304841.48269287124,0.538088858127594,0.014095425605773926,0.30015429854393005,2.092911720275879,0.6772567629814148,0.07650242745876312,3.373100519180298,1.5036993026733398
304841.48669287126,0.25859880447387695,-0.10215470939874649,0.5694040656089783,0.8047787547111511,-0.1910327821969986,1.3828752040863037,0.8756778836250305,0.1278197467327118
304841.4906928712,0.34379491209983826,-0.14155569672584534,0.9944371581077576,0.6860790252685547,0.19397394359111786,2.06441330909729,0.36365529894828796,1.4145394563674927
304841.49469287123,0.3915970027446747,-0.16025318205356598,1.3528785705566406,0.3928787410259247,0.6994561553001404,2.4150593280792236,-0.236940398812294,2.9341542720794678
304841.49869287125,0.44484037160873413,-0.18818336725234985,1.5523723363876343,0.4294589161872864,0.7733055353164673,2.8470146656036377,-0.4285013675689697,3.376391649246216
304841.50269287126,0.19401594996452332,-0.009199811145663261,0.8435847163200378,-0.1042398065328598,1.288060188293457,0.15807904303073883,1.1071645021438599,0.9099253416061401
304841.5066928712,0.24635754525661469,0.08594325184822083,1.0397876501083374,-0.019964074715971947,1.7119641304016113,0.06095033511519432,2.061121940612793,0.5062695145606995
304841.51069287123,0.2683301866054535,0.19714903831481934,1.080102562904358,0.13228362798690796,1.917418360710144,0.0459432415664196,2.7739920616149902,0.1117066890001297
304841.51469287125,0.3044808506965637,0.2253270000219345,1.2298219203948975,0.1265125870704651,2.1977884769439697,-0.00495471665635705,3.286372184753418,-0.0246388241648674
304841.51869287126,0.11294981837272644,0.2893245816230774,0.22958457469940186,0.6905303001403809,0.22625073790550232,1.3005614280700684,0.10346666723489761,1.9713070392608643
304841.5226928712,0.12764154374599457,0.5351700186729431,0.1301776021718979,1.271574854850769,-0.05103234201669693,2.04975962638855,0.03673939406871796,2.561547040939331
304841.52669287124,0.12298797070980072,0.7616350650787354,-0.012722675688564777,1.7727069854736328,-0.34870433807373047,2.546168088912964,0.1774115264415741,2.54569411277771
304841.53069287125,0.138595849275589,0.8701190948486328,-0.028482822701334953,2.0550522804260254,-0.43236860632896423,2.9093785285949707,0.10330212861299515,3.0003557205200195
304841.53469287127,0.027385275810956955,0.562811553478241,-0.12090259790420532,0.9984381794929504,0.5019404888153076,0.22411254048347473,1.9234470129013062,-0.017672589048743248
304841.5386928712,0.01695341244339943,0.7968339920043945,-0.06063543260097504,0.9379848837852478,1.2556304931640625,-0.04926310479640961,2.8797996044158936,1.1424355506896973
304841.54269287124,0.0011084291618317366,0.9523969292640686,0.06329155713319778,0.6933602094650269,1.9936633110046387,-0.27414804697036743,3.424184799194336,2.578028440475464
304841.54669287126,-0.0006032556411810219,1.0865066051483154,0.06194952502846718,0.7706192135810852,2.3042843341827393,-0.37851643562316895,4.182547092437744,2.909205436706543
304841.5506928713,-0.040495581924915314,0.5456783175468445,0.5561623573303223,-0.24530038237571716,1.1680852174758911,1.3455743789672852,-0.018169760704040527,1.3064322471618652
304841.5546928712,-0.06883680820465088,0.770037829875946,0.9857470989227295,-0.38676196336746216,1.349830985069275,2.5288825035095215,0.17130602896213531,1.2923346757888794
304841.55869287124,-0.07920315861701965,0.8861626386642456,1.1272119283676147,-0.4439885914325714,1.5789262056350708,2.869021415710449,0.1268831044435501,1.5096453428268433
304841.56269287126,-0.04467230662703514,0.315665066242218,0.8667353391647339,0.24055859446525574,-0.11057023704051971,1.3127286434173584,1.715344786643982,0.2601100504398346
304841.5666928712,-0.06433451175689697,0.32911092042922974,1.1812747716903687,0.7820411324501038,-0.0189456008374691,0.8423143029212952,2.198223829269409,1.8191566467285156
304841.57069287123,-0.07595248520374298,0.2827112376689911,1.3761959075927734,1.3613951206207275,0.13796207308769226,0.029156740754842758,2.290583848953247,3.5092241764068604
304841.57469287125,-0.08778563141822815,0.31804871559143066,1.5692209005355835,1.5613361597061157,0.14153887331485748,0.029704131186008453,2.7186295986175537,4.09793758392334
304841.57869287126,-0.037680115550756454,0.014170346781611443,0.5502642393112183,1.1243034601211548,0.9003987312316895,0.1316508799791336,-0.13683272898197174,0.6991900205612183
304841.5826928712,-0.03893715888261795,-0.06270584464073181,0.5136657953262329,1.3306714296340942,1.5544894933700562,1.0571000576019287,0.32893261313438416,0.49122685194015503
304841.58669287123,-0.032985441386699677,-0.15150266885757446,0.3648785650730133,1.352080225944519,2.087064504623413,2.059203863143921,1.0927752256393433,0.41038012504577637
304841.59069287125,-0.03701869025826454,-0.17938964068889618,0.4090282917022705,1.5313793420791626,2.395887613296509,2.3879940509796143,1.2076159715652466,0.26794156432151794
304841.59469287127,0.007239184807986021,-0.06790442019701004,-0.114801324903965,0.21210439503192902,0.7771637439727783,1.504723072052002,2.172485113143921,2.7591629028320312
304841.5986928712,0.03839875012636185,-0.04841991886496544,-0.14781935513019562,-0.03244093060493469,0.5568417906761169,1.2020626068115234,1.9859799146652222,2.7113165855407715
304841.60269287124,0.07274511456489563,-0.009218540973961353,-0.142267107963562,-0.33378639817237854,0.20365452766418457,0.562877893447876,1.2728546857833862,2.126950740814209
304841.60669287125,0.08329170197248459,-0.012726845219731331,-0.17012323439121246,-0.41769686341285706,0.19532234966754913,0.6048755645751953,1.4325393438339233,2.4240987300872803
304841.61069287127,0.08514741063117981,0.11372924596071243,0.12121044844388962,0.07161901146173477,0.007836486212909222,-0.2488439828157425,-0.1358906477689743,0.0985218733549118
304841.6146928712,0.15315617620944977,0.2923278510570526,0.4430229961872101,0.5620099902153015,0.7241397500038147,0.7954307794570923,1.0362449884414673,1.3634626865386963
304841.61869287124,0.21478122472763062,0.4747225344181061,0.79734867811203,1.1195237636566162,1.5487669706344604,2.063918352127075,2.50506591796875,2.8550467491149902
304841.62269287126,0.24476997554302216,0.5430100560188293,0.9112651348114014,1.285142183303833,1.773947834968567,2.374547004699707,2.8596115112304688,3.275557518005371
304841.6266928713,0.1724480539560318,0.444478303194046,0.7736282348632812,1.13395094871521,1.3222968578338623,1.5394728183746338,1.4114586114883423,1.497215747833252
304841.63069287123,0.2732376456260681,0.7134088277816772,1.1674586534500122,1.4555881023406982,1.501041054725647,1.3778886795043945,0.9613967537879944,0.7894358038902283
304841.63469287124,0.35541999340057373,0.937492311000824,1.4417030811309814,1.561037302017212,1.3653178215026855,0.8297755718231201,0.19286483526229858,-0.0702560767531395
304841.63869287126,0.40442872047424316,1.0706695318222046,1.6607394218444824,1.7910687923431396,1.5808732509613037,0.9218407273292542,0.12094289064407349,-0.2712401747703552
304841.6426928713,0.24649976193904877,0.5780036449432373,0.6615003347396851,0.30874308943748474,-0.1749294102191925,-0.18321509659290314,0.5123665928840637,1.459337592124939
304841.64669287123,0.3640371263027191,0.7727174758911133,0.6667861938476562,0.049209121614694595,-0.11746422946453094,0.5866448879241943,1.759264349937439,2.328993320465088
304841.65069287125,0.4508036971092224,0.8787839412689209,0.5380482077598572,-0.26908349990844727,0.05466490611433983,1.6287727355957031,2.9378128051757812,2.8028757572174072
304841.65469287126,0.5130813121795654,1.0016237497329712,0.6076215505599976,-0.34237220883369446,0.005607414525002241,1.843776822090149,3.5057168006896973,3.3974430561065674
304841.6586928713,0.28977084159851074,0.39700227975845337,-0.00947903748601675,0.001965360017493367,0.9817011952400208,1.818311095237732,0.8113945126533508,0.046040598303079605
304841.66269287124,0.4128088653087616,0.4409436285495758,-0.11452837288379669,0.3950556218624115,1.809951663017273,1.6183303594589233,0.5537034273147583,0.75706946849823
304841.66669287125,0.4978800415992737,0.4133770763874054,-0.22012461721897125,0.8586936593055725,2.50665020942688,1.012752890586853,0.24899226427078247,1.6960781812667847
304841.67069287127,0.5645397901535034,0.4671734571456909,-0.2526356875896454,0.9767599105834961,2.9094042778015137,1.142019271850586,0.197739839553833,1.8937432765960693
304841.6746928713,0.3155461549758911,0.03876246511936188,0.08619466423988342,1.1547324657440186,0.613165557384491,0.12521977722644806,2.0697081089019775,1.4800848960876465
304841.67869287124,0.4706929326057434,-0.0029186413157731295,0.2705690264701843,1.7208882570266724,0.5685434937477112,0.36671972274780273,4.252887725830078,1.5386239290237427
304841.68269287125,0.5430406928062439,-0.003813269780948758,0.30597761273384094,1.9866608381271362,0.6599255204200745,0.4045495092868805,4.734625339508057,1.8062541484832764
304841.68669287127,0.26647475361824036,-0.05852557346224785,0.5618084073066711,0.8400365114212036,-0.278494656085968,1.4836173057556152,1.7174499034881592,-0.29817426204681396
304841.6906928712,0.35301557183265686,-0.1050400659441948,0.9552077651023865,0.698137640953064,0.14915388822555542,2.1274523735046387,1.0657657384872437,1.094520926475525
304841.69469287124,0.4008236825466156,-0.14432837069034576,1.2783288955688477,0.3772810995578766,0.7211917042732239,2.4355361461639404,0.19482769072055817,2.6483869552612305
304841.69869287126,0.4541570544242859,-0.16410507261753082,1.4590623378753662,0.40935322642326355,0.8089486956596375,2.8595731258392334,0.11097586154937744,3.1555302143096924
304841.7026928713,0.1981540024280548,-0.022595437243580818,0.8785297274589539,-0.14640925824642181,1.224713683128357,0.1288728415966034,1.296886920928955,1.1197876930236816
304841.70669287123,0.24979104101657867,0.07045447081327438,1.0406157970428467,-0.0840793177485466,1.7208257913589478,0.0375632680952549,2.2288055419921875,0.780792772769928
304841.71069287125,0.2705284357070923,0.18589262664318085,1.0558280944824219,0.0747210830450058,1.9708253145217896,0.047933850437402725,2.8195314407348633,0.4041023850440979
304841.71469287126,0.3067675232887268,0.21288180351257324,1.2023873329162598,0.057017095386981964,2.2928214073181152,-0.010778398253023624,3.3244516849517822,0.29540690779685974
304841.7186928713,0.11292831599712372,0.28857356309890747,0.24211540818214417,0.6800096035003662,0.2326669842004776,1.2692676782608032,0.2468690127134323,2.994457721710205
304841.72269287123,0.12826254963874817,0.5234073400497437,0.11897190660238266,1.3060256242752075,0.041349057108163834,1.9811997413635254,0.16339190304279327,3.0069353580474854
304841.72669287125,0.12429925799369812,0.7349532842636108,-0.0562257394194603,1.8795284032821655,-0.16358409821987152,2.418339252471924,0.18831972777843475,2.3442773818969727
304841.73069287126,0.1403237283229828,0.8415284156799316,-0.08607222139835358,2.155129909515381,-0.20189228653907776,2.78098201751709,0.07029307633638382,2.6365740299224854
304841.7346928713,0.02956509403884411,0.5479402542114258,-0.13461057841777802,0.9870421290397644,0.4296061098575592,0.33058011531829834,1.8329473733901978,-0.04123128205537796
304841.73869287124,0.019845427945256233,0.7956171631813049,-0.03381641209125519,0.9364222288131714,1.3613046407699585,0.06922207027673721,2.2083513736724854,1.106939673423767
304841.74269287125,0.003923159092664719,0.9753144383430481,0.11765892058610916,0.6840784549713135,2.3215572834014893,-0.20464244484901428,2.0759408473968506,2.6505725383758545
304841.74669287127,0.0037486772052943707,1.1092052459716797,0.12773939967155457,0.7631614208221436,2.6869888305664062,-0.2911067008972168,2.41422176361084,2.9668214321136475
304841.7506928713,-0.03860994055867195,0.5347821712493896,0.550397515296936,-0.18537487089633942,1.0125375986099243,1.3303439617156982,-0.16314101219177246,1.246837854385376
304841.75469287124,-0.06438476592302322,0.7771774530410767,0.9565660953521729,-0.3177524209022522,1.196318507194519,2.442518472671509,0.02897750958800316,0.9904415011405945
304841.75869287126,-0.07365712523460388,0.894343376159668,1.1023069620132446,-0.3606716990470886,1.3977899551391602,2.799046516418457,-0.03419363498687744,1.1939833164215088
304841.76269287127,-0.04603755101561546,0.32292747497558594,0.8422365784645081,0.21494580805301666,-0.04360668361186981,1.1556369066238403,1.6921653747558594,0.12379296869039536
304841.7666928712,-0.06730581074953079,0.3334742486476898,1.176613688468933,0.801701545715332,-0.06280593574047089,0.834592878818512,2.2438154220581055,1.4295910596847534
304841.77069287124,-0.08155776560306549,0.28415215015411377,1.3999112844467163,1.4417723417282104,-0.009328106418251991,0.28030842542648315,2.361886978149414,2.876295566558838
304841.77469287126,-0.09217366576194763,0.31956562399864197,1.5988702774047852,1.6485804319381714,-0.05845987796783447,0.24936796724796295,2.8030028343200684,3.3233745098114014
304841.7786928713,-0.041023653000593185,0.007371529005467892,0.572160542011261,1.1349273920059204,0.9692891240119934,0.01564464159309864,0.052685439586639404,0.810912549495697
304841.78269287123,-0.03948038071393967,-0.06460624188184738,0.5238775610923767,1.37415611743927,1.7242178916931152,0.9801995158195496,0.6004764437675476,0.7001680731773376
304841.78669287125,-0.0279900711029768,-0.13788729906082153,0.3639377951622009,1.4156452417373657,2.349438190460205,2.0268568992614746,1.3501513004302979,0.6199045777320862
304841.79069287126,-0.03127213194966316,-0.16276536881923676,0.403343141078949,1.6258926391601562,2.70041823387146,2.3926656246185303,1.491572380065918,0.6211854815483093
304841.7946928713,0.005930767394602299,-0.07358760386705399,-0.107436403632164,0.2082478404045105,0.6847103238105774,1.5767996311187744,1.9469399452209473,1.9689959287643433
304841.79869287123,0.03878812864422798,-0.06815395504236221,-0.16717711091041565,0.04493148624897003,0.4201693832874298,1.2471415996551514,1.836472988128662,2.312511444091797
304841.80269287125,0.07571887969970703,-0.03943803533911705,-0.19288793206214905,-0.15799570083618164,0.046776290982961655,0.6065942049026489,1.2620457410812378,2.0282974243164062
304841.80669287127,0.08709470182657242,-0.04834628850221634,-0.2311476320028305,-0.19489029049873352,-0.021724337711930275,0.613747239112854,1.4184237718582153,2.4389569759368896
304841.8106928713,0.08655813336372375,0.1270935833454132,0.1394190937280655,0.11198795586824417,0.018519645556807518,-0.24478498101234436,-0.22493258118629456,-0.15888649225234985
304841.81469287124,0.15383020043373108,0.3001362681388855,0.44813814759254456,0.5579972267150879,0.7217198014259338,0.7695080637931824,1.5861998796463013,0.9334258437156677
304841.81869287125,0.2147354930639267,0.47595083713531494,0.7842351198196411,1.0654206275939941,1.5366207361221313,1.9897937774658203,4.0430378913879395,2.326730251312256
304841.82269287127,0.24461789429187775,0.5430723428726196,0.8948749303817749,1.225929856300354,1.7595431804656982,2.2947280406951904,4.455755710601807,2.7076616287231445
304841.8266928713,0.1690213978290558,0.45197224617004395,0.7524242401123047,1.1167317628860474,1.3709001541137695,1.6849205493927002,2.8328161239624023,1.5548800230026245
304841.83069287124,0.2667625844478607,0.709056556224823,1.123193621635437,1.4255166053771973,1.5019421577453613,1.4847556352615356,2.046478509902954,0.7466530799865723
304841.83469287126,0.3461310565471649,0.9131153225898743,1.3851449489593506,1.5503102540969849,1.318948745727539,0.889827311038971,0.686660885810852,-0.28321129083633423
304841.8386928713,0.39404287934303284,1.0399084091186523,1.586470603942871,1.759163737297058,1.4971214532852173,0.9758449196815491,0.5682128071784973,-0.4805476665496826
304841.8426928713,0.245492622256279,0.5878125429153442,0.6328861117362976,0.3569996953010559,-0.04505560174584389,-0.10471277683973312,0.5282742977142334,2.2377307415008545
304841.84669287124,0.36504462361335754,0.7699463963508606,0.6480875015258789,0.1261548101902008,0.04506697505712509,0.5330402255058289,1.829896330833435,2.7342641353607178
304841.85069287126,0.45591068267822266,0.8673892617225647,0.5330387949943542,-0.1957872360944748,0.18204380571842194,1.3702493906021118,3.1060571670532227,2.7079367637634277
304841.8546928713,0.518372654914856,0.986980140209198,0.6043387651443481,-0.23972605168819427,0.19322234392166138,1.5731940269470215,3.648329496383667,3.131082057952881
304841.8586928713,0.31764355301856995,0.40193554759025574,-0.044143617153167725,0.06863629817962646,1.2601991891860962,1.471596121788025,0.6600891947746277,0.18812119960784912
304841.86269287125,0.47953253984451294,0.5428432822227478,-0.10231024771928787,0.32889044284820557,2.2297468185424805,1.9276505708694458,0.5048640966415405,0.5964086055755615
304841.86669287126,0.5507281422615051,0.6281830668449402,-0.12369510531425476,0.3689742684364319,2.571568727493286,2.2577407360076904,0.5218400359153748,0.6508496999740601
304841.8706928713,0.2882987856864929,0.14579623937606812,-0.08752947300672531,0.8394542932510376,1.2734860181808472,-0.02173735573887825,0.8886151909828186,4.030288219451904
304841.87469287124,0.4035179018974304,0.10637612640857697,0.08189121633768082,1.386533498764038,1.1137462854385376,0.03197285160422325,2.2066969871520996,3.783632278442383
304841.87869287125,0.48101845383644104,0.039028797298669815,0.294813871383667,1.8142261505126953,0.6825063228607178,0.18427090346813202,3.3411996364593506,2.394505739212036
304841.88269287127,0.5458642244338989,0.038929492235183716,0.3385685384273529,2.07790470123291,0.7428802847862244,0.126868337392807,3.8760576248168945,2.610302448272705
304841.8866928713,0.26101136207580566,-0.08855261653661728,0.5606503486633301,0.819503664970398,-0.21481876075267792,1.458952784538269,0.9303858876228333,-0.007427255157381296
304841.89069287124,0.3472667634487152,-0.13036517798900604,0.9591318368911743,0.6874662041664124,0.09578125923871994,2.0447263717651367,0.42212146520614624,1.432481288909912
304841.89469287125,0.39610394835472107,-0.1596754640340805,1.287294626235962,0.36521854996681213,0.5960037112236023,2.308621406555176,-0.20312555134296417,3.104034900665283
304841.89869287127,0.44932249188423157,-0.18099358677864075,1.47642183303833,0.40573549270629883,0.6559885144233704,2.6644041538238525,-0.33607226610183716,3.5873122215270996
304841.9026928713,0.19303958117961884,-0.02078712359070778,0.8556891679763794,-0.17804987728595734,1.3451696634292603,0.18988868594169617,1.2429027557373047,1.0934439897537231
304841.90669287124,0.24465647339820862,0.0725792795419693,1.041133999824524,-0.031442366540431976,1.776187777519226,0.14838376641273499,2.1028339862823486,0.4457177221775055
304841.91069287126,0.2665861248970032,0.18984916806221008,1.0711737871170044,0.16632258892059326,1.9559065103530884,0.1768818497657776,2.6821491718292236,-0.24028217792510986
304841.9146928713,0.3023020625114441,0.21509559452533722,1.2172719240188599,0.19390887022018433,2.225358247756958,0.11822707206010818,3.097566604614258,-0.47928956151008606
304841.9186928713,0.1133078783750534,0.2930092215538025,0.24009686708450317,0.7114874720573425,0.25301429629325867,1.2641366720199585,0.10312935709953308,1.9739512205123901
304841.92269287125,0.12804844975471497,0.5382739305496216,0.12358351796865463,1.299957275390625,0.0360996350646019,2.038602113723755,0.1721775382757187,2.4551823139190674
304841.92669287126,0.12309069186449051,0.7610501050949097,-0.051465608179569244,1.806235909461975,-0.1886386126279831,2.5632362365722656,0.40492767095565796,2.39100980758667
304841.9306928713,0.138967365026474,0.8688461780548096,-0.061200108379125595,2.0697731971740723,-0.29439836740493774,2.9531333446502686,0.3727617561817169,2.7963967323303223
304841.9346928713,0.032294873148202896,0.5646787285804749,-0.1533018797636032,0.9326270818710327,0.43335098028182983,0.24162305891513824,1.66231369972229,-0.1897537112236023
304841.93869287125,0.019736288115382195,0.7968116402626038,-0.051896728575229645,0.9155421257019043,1.1881898641586304,-0.04402458295226097,2.1190426349639893,0.8457558751106262
304841.94269287126,0.00018790845933835953,0.9507097005844116,0.10348881036043167,0.704697847366333,1.919742465019226,-0.2931765019893646,2.1338677406311035,2.1699934005737305
304841.9466928713,-0.0007713594241067767,1.0838078260421753,0.11896893382072449,0.7881295680999756,2.2117021083831787,-0.3928626477718353,2.5013742446899414,2.4957640171051025
304841.9506928713,-0.025491399690508842,0.53337562084198,0.42945364117622375,-0.20659343898296356,1.1501805782318115,1.0368443727493286,-0.3951493501663208,1.897437572479248
304841.95469287125,-0.052752479910850525,0.6550511121749878,0.8465917110443115,-0.221165731549263,1.0059934854507446,2.0673630237579346,0.35971176624298096,0.9533502459526062
304841.95869287127,-0.07675617933273315,0.6855797171592712,1.2299779653549194,-0.14968913793563843,0.5992898344993591,2.9414474964141846,1.4304543733596802,-0.37692776322364807
304841.9626928713,-0.08847309648990631,0.7765457630157471,1.410653829574585,-0.1780075579881668,0.6678418517112732,3.4387245178222656,1.6044366359710693,-0.5601745247840881
304841.9666928713,-0.05072852596640587,0.2376907616853714,0.8995819687843323,0.550721287727356,-0.16564911603927612,0.5131046772003174,1.8701304197311401,1.3498241901397705
304841.97069287125,-0.0678626224398613,0.22397758066654205,1.1449263095855713,1.190611481666565,0.20048482716083527,0.2681809663772583,1.733899474143982,2.3912270069122314
304841.97469287127,-0.07773896306753159,0.16467389464378357,1.230392575263977,1.7886017560958862,0.7277337908744812,0.012383420020341873,1.0866183042526245,3.04960560798645
304841.9786928713,-0.08785601705312729,0.18235762417316437,1.3978368043899536,2.071307897567749,0.8098275661468506,-0.06012212112545967,1.2196884155273438,3.619676351547241
304841.9826928713,-0.0330754816532135,-0.06294345110654831,0.3775065541267395,1.1138583421707153,1.3818851709365845,0.8494156002998352,0.01407802477478981,-0.25993767380714417
304841.98669287126,-0.027132799848914146,-0.11731594055891037,0.27473965287208557,1.1332961320877075,1.898807168006897,1.7926125526428223,1.1900355815887451,1.2721590995788574
304841.9906928713,-0.013924329541623592,-0.1677909791469574,0.08409269154071808,0.9132577776908875,2.12075138092041,2.6247787475585938,2.613257646560669,3.431549310684204
304841.9946928713,-0.014721531420946121,-0.1902063488960266,0.09109356999397278,1.0322600603103638,2.4525258541107178,3.026660203933716,2.9742774963378906,3.7135186195373535
304841.9986928713,0.03101387433707714,-0.06537523120641708,-0.11957018822431564,-0.09314857423305511,0.3042720854282379,0.8572037220001221,1.5498284101486206,2.9646949768066406
304842.00269287126,0.07037123292684555,-0.008961605839431286,-0.10384788364171982,-0.1481495499610901,0.1470082551240921,0.4941653609275818,0.8552113771438599,1.834870457649231
304842.0066928713,0.10992796719074249,0.06851533055305481,-0.053611937910318375,-0.16119039058685303,-0.05656526982784271,0.0071312361396849155,-0.16527199745178223,0.12706652283668518
304842.0106928713,0.12533633410930634,0.08103635162115097,-0.07251492887735367,-0.22324009239673615,-0.08714400231838226,-0.06641405820846558,-0.29766955971717834,0.041261956095695496
304842.0146928713,0.10752087831497192,0.2053447961807251,0.30236274003982544,0.3679220378398895,0.4087240397930145,0.6086020469665527,0.8806025981903076,0.4948064088821411
304842.01869287126,0.1838163435459137,0.40819570422172546,0.7003881335258484,0.9335706830024719,1.1796631813049316,1.4965740442276,1.914508581161499,1.698388695716858
304842.0226928713,0.25087499618530273,0.5987555980682373,1.0997296571731567,1.4999516010284424,1.94088876247406,2.3292148113250732,2.8307576179504395,2.7643685340881348
304842.0266928713,0.28565892577171326,0.6850773096084595,1.2579716444015503,1.7173839807510376,2.2458598613739014,2.7095537185668945,3.3252882957458496,3.2990756034851074
304842.0306928713,0.19076655805110931,0.503226637840271,0.890899121761322,1.1411762237548828,1.2964743375778198,0.9680758714675903,0.7034014463424683,0.28404948115348816
304842.03469287127,0.29902970790863037,0.7727551460266113,1.1802093982696533,1.269327163696289,1.1124790906906128,0.5535858273506165,0.5494264960289001,0.43270304799079895
304842.0386928713,0.3850511312484741,0.9826437830924988,1.3402047157287598,1.172984004020691,0.6559047102928162,-0.07251986861228943,0.3615877330303192,0.7637125253677368
304842.0426928713,0.4390895962715149,1.1195240020751953,1.5217300653457642,1.3304096460342407,0.705259382724762,-0.1371278464794159,0.32159560918807983,0.6914874911308289
304842.0466928713,0.2544155716896057,0.5675792098045349,0.4821968972682953,0.013444293290376663,-0.2500602602958679,0.3063550591468811,1.3943794965744019,2.1614973545074463
304842.0506928713,0.38039278984069824,0.739946186542511,0.42568567395210266,-0.08835791051387787,0.14651016891002655,1.3097624778747559,2.221921920776367,2.08016300201416
304842.0546928713,0.4749891757965088,0.8257033228874207,0.26393407583236694,-0.18663610517978668,0.6889079213142395,2.3787882328033447,2.7069036960601807,1.4303306341171265
304842.0586928713,0.5413563847541809,0.9394072890281677,0.29624032974243164,-0.2153676450252533,0.7721476554870605,2.737748384475708,3.223771333694458,1.6123542785644531
304842.0626928713,0.3154199421405792,0.3126521110534668,-0.0732937604188919,0.4131288230419159,1.4494960308074951,1.0020177364349365,-0.11260552704334259,0.5784181356430054
304842.0666928713,0.4769693911075592,0.4068930447101593,-0.12423364818096161,0.8615685701370239,2.2093305587768555,0.9141258597373962,-0.2547595202922821,1.7612353563308716
304842.0706928713,0.5480299592018127,0.4708099365234375,-0.15146178007125854,0.9777283072471619,2.5617733001708984,1.0965912342071533,-0.34600630402565,1.9801486730575562
304842.0746928713,0.2871149778366089,0.060673970729112625,-0.014678292907774448,1.15839421749115,0.7026329636573792,-0.3979264497756958,1.3422152996063232,2.107987880706787
304842.07869287126,0.3934243321418762,0.00797466840595007,0.2564602196216583,1.6038544178009033,0.416066437959671,0.3194895386695862,2.237198829650879,1.4204741716384888
304842.0826928713,0.45828914642333984,-0.05484751611948013,0.5731921792030334,1.8617157936096191,-0.0016854243585839868,1.2647136449813843,2.8467986583709717,0.3776944875717163
304842.0866928713,0.5214601159095764,-0.07044997811317444,0.6568479537963867,2.133558511734009,-0.06184142082929611,1.421170711517334,3.2900445461273193,0.23770248889923096
304842.0906928713,0.25036492943763733,-0.11517231911420822,0.6913175582885742,0.49062809348106384,0.03623031824827194,1.7610492706298828,0.1356726586818695,1.2105470895767212
304842.09469287127,0.3275180160999298,-0.13959433138370514,1.0706332921981812,0.2592536509037018,0.7186121344566345,1.7796465158462524,0.37147045135498047,2.402423143386841
304842.0986928713,0.36830151081085205,-0.13847945630550385,1.3515138626098633,-0.08590787649154663,1.520131230354309,1.4053874015808105,0.7029422521591187,3.227114677429199
304842.1026928713,0.41730719804763794,-0.15838682651519775,1.5418167114257812,-0.1250549852848053,1.744429111480713,1.609874963760376,0.7503644227981567,3.882051467895508
304842.1066928713,0.17849092185497284,0.057074714452028275,0.7791057825088501,-0.08106853067874908,1.364168405532837,-0.3763545751571655,2.1516292095184326,0.03458599001169205
304842.11069287127,0.22004754841327667,0.18980532884597778,0.8321671485900879,0.21152988076210022,1.484555721282959,0.12207522243261337,2.2476208209991455,0.8666052222251892
304842.1146928713,0.23344193398952484,0.3334444463253021,0.7512773275375366,0.5962994694709778,1.3270584344863892,0.8744576573371887,1.7846972942352295,2.2392170429229736
304842.1186928713,0.2643541395664215,0.3799840807914734,0.8458076119422913,0.6673773527145386,1.512547492980957,0.9834808111190796,2.037555694580078,2.3212850093841553
304842.1226928713,0.09245794266462326,0.3733634650707245,0.057492274791002274,0.9231082201004028,-0.09886263310909271,1.6363507509231567,-0.22883029282093048,3.27473783493042
304842.1266928713,0.10037194192409515,0.6273609399795532,-0.06334351748228073,1.441048502922058,-0.012459917925298214,1.9630101919174194,0.60934978723526,2.370389461517334
304842.1306928713,0.0913681909441948,0.8435347676277161,-0.19256280362606049,1.8449270725250244,0.18502745032310486,1.8709708452224731,1.677823781967163,0.7917778491973877
304842.1346928713,0.10344910621643066,0.9593417644500732,-0.23973886668682098,2.1002163887023926,0.19872209429740906,2.1728219985961914,1.8674156665802002,0.7919535040855408
304842.1386928713,0.01544533483684063,0.6016377806663513,-0.06184520572423935,0.6308378577232361,0.9767856597900391,-0.3816322982311249,2.177030324935913,0.17580215632915497
304842.1426928713,-0.001124729635193944,0.8287193775177002,0.1283969134092331,0.49503034353256226,1.716181755065918,-0.149903804063797,1.9517661333084106,1.8511812686920166
304842.1466928713,-0.023078233003616333,0.9692415595054626,0.3721010088920593,0.234089657664299,2.2989606857299805,0.32694292068481445,1.211857795715332,3.587305784225464
304842.1506928713,-0.02662504091858864,1.099043369293213,0.42750799655914307,0.23579804599285126,2.6900527477264404,0.3126187026500702,1.3988103866577148,4.217911720275879
304842.1546928713,-0.03902560472488403,0.47233784198760986,0.7220230102539062,-0.1143440380692482,0.5850359201431274,1.7281743288040161,0.24538962543010712,0.5896323919296265
304842.1586928713,-0.06456778943538666,0.6618569493293762,1.1764593124389648,0.0022868700325489044,0.5557570457458496,2.7364048957824707,1.2700389623641968,0.5635695457458496
304842.1626928713,-0.07354649901390076,0.7655979990959167,1.3525668382644653,-0.004666074179112911,0.6528123021125793,3.193953514099121,1.4209810495376587,0.5997623205184937
304842.1666928713,-0.047485750168561935,0.23924461007118225,0.8819478154182434,0.5382242202758789,-0.23538297414779663,0.5892355442047119,1.9916813373565674,1.3963674306869507
304842.17069287127,-0.07024793326854706,0.20643210411071777,1.1028779745101929,1.1805349588394165,0.18948861956596375,0.32690462470054626,1.8433252573013306,2.442222833633423
304842.1746928713,-0.08442376554012299,0.12283408641815186,1.1680210828781128,1.8028156757354736,0.7320587635040283,-0.023030007258057594,1.1884243488311768,3.068026065826416
304842.1786928713,-0.09727964550256729,0.13486513495445251,1.3259949684143066,2.0719542503356934,0.8300420045852661,-0.08086676150560379,1.3198132514953613,3.630600929260254
304842.1826928713,-0.02857990562915802,-0.046038009226322174,0.3674176335334778,1.066127061843872,1.344058632850647,0.8007493615150452,-0.19903907179832458,-0.26277586817741394
304842.18669287127,-0.021372828632593155,-0.09305349737405777,0.2865130305290222,1.080391764640808,1.745700716972351,1.7996673583984375,1.1867152452468872,0.438162237405777
304842.1906928713,-0.005769874434918165,-0.13487979769706726,0.1319238245487213,0.8857409358024597,1.8861790895462036,2.672839641571045,2.8190555572509766,1.5045045614242554
304842.1946928713,-0.005890909116715193,-0.15972816944122314,0.1412084549665451,1.0080846548080444,2.1561715602874756,3.1506824493408203,3.249701499938965,1.6441508531570435
304842.1986928713,0.029565338045358658,-0.04634513333439827,-0.16484889388084412,-0.11507362872362137,0.2469789981842041,0.6912835836410522,1.2498282194137573,2.089080333709717
304842.2026928713,0.06909589469432831,0.00765858544036746,-0.09295892715454102,-0.17855721712112427,-0.0728093683719635,0.3032962679862976,0.8287237882614136,1.6450001001358032
304842.2066928713,0.10911275446414948,0.084373340010643,0.025348886847496033,-0.21325652301311493,-0.43183091282844543,-0.17620745301246643,0.16084134578704834,0.7161223292350769
304842.2106928713,0.12447287887334824,0.09608089923858643,0.030455337837338448,-0.2452448308467865,-0.5334048271179199,-0.27649521827697754,0.06964892148971558,0.6927570104598999
304842.2146928713,0.10778230428695679,0.2082194983959198,0.28876805305480957,0.4047187268733978,0.4484315514564514,0.4841277599334717,0.5607413649559021,0.8091313242912292
304842.2186928713,0.18394429981708527,0.42193111777305603,0.6566441655158997,0.9825378060340881,1.2155863046646118,1.4002056121826172,1.7683254480361938,2.2591986656188965
304842.2226928713,0.25059741735458374,0.6278092861175537,1.0143479108810425,1.5427194833755493,1.9538294076919556,2.275428295135498,2.8957712650299072,3.5074472427368164
304842.2266928713,0.2856019139289856,0.7166736125946045,1.1620237827301025,1.7859899997711182,2.268484115600586,2.631118059158325,3.3844714164733887,4.213968276977539
304842.2306928713,0.19192250072956085,0.5023679137229919,0.9047990441322327,1.2109019756317139,1.1605886220932007,1.1650806665420532,0.6118720769882202,0.0004600627871695906
304842.2346928713,0.29712948203086853,0.7604368329048157,1.1963896751403809,1.332561731338501,0.9921642541885376,0.7289281487464905,0.2740524709224701,0.432140976190567
304842.2386928713,0.3801904022693634,0.9532708525657654,1.3545929193496704,1.2130930423736572,0.5454672574996948,0.056909557431936264,-0.06887272000312805,1.3951894044876099
304842.2426928713,0.4327571988105774,1.0920964479446411,1.5284273624420166,1.3767439126968384,0.6031283736228943,0.02664286457002163,-0.15202529728412628,1.3446108102798462
304842.2466928713,0.2587670087814331,0.5771428346633911,0.49222487211227417,0.05158300697803497,-0.26556554436683655,0.30126717686653137,1.3789846897125244,3.7856249809265137
304842.2506928713,0.3803895115852356,0.7234939932823181,0.40574830770492554,-0.03384711593389511,0.14103758335113525,1.2455655336380005,2.2475197315216064,3.0603079795837402
304842.2546928713,0.4694439470767975,0.7813442945480347,0.21009573340415955,-0.10317493975162506,0.7151582837104797,2.1935200691223145,2.785945177078247,1.6578999757766724
304842.2586928713,0.5348533987998962,0.8854044079780579,0.23127023875713348,-0.1338832825422287,0.8117411136627197,2.5759639739990234,3.3248131275177,1.7449793815612793
304842.2626928713,0.29282236099243164,0.31855830550193787,-0.12379559874534607,0.1787320375442505,1.462172508239746,1.204468846321106,-0.1421365886926651,0.40364161133766174
304842.2666928713,0.41458839178085327,0.33181658387184143,-0.12932966649532318,0.7146033048629761,1.8754178285598755,0.8055776357650757,0.157922625541687,2.01761531829834
304842.2706928713,0.49608784914016724,0.2857140302658081,-0.1253882348537445,1.2745447158813477,2.0201966762542725,0.1524156779050827,0.6602457165718079,3.7942099571228027
304842.2746928713,0.5646122097969055,0.3214157521724701,-0.1355036199092865,1.4713536500930786,2.29386043548584,0.1030542179942131,0.6921414732933044,4.423911094665527
304842.27869287133,0.28332027792930603,-0.011538011953234673,0.18868303298950195,1.1409435272216797,0.245304137468338,-0.05984316021203995,1.9204175472259521,0.6446420550346375
304842.2826928713,0.38316234946250916,-0.08311594277620316,0.5162447690963745,1.4022718667984009,0.10289639234542847,1.0443952083587646,2.5552632808685303,0.441679447889328
304842.2866928713,0.44385606050491333,-0.15584778785705566,0.8591998815536499,1.4269620180130005,-0.04466987028717995,2.2955732345581055,2.7248401641845703,0.34952837228775024
304842.2906928713,0.5028746724128723,-0.18186995387077332,0.9826014041900635,1.622065544128418,-0.09929424524307251,2.652724266052246,3.363201856613159,0.29594698548316956
304842.29469287134,0.24550265073776245,-0.08777020126581192,0.888232409954071,0.11309698224067688,0.6697123646736145,1.310011386871338,0.01454320177435875,2.131042718887329
304842.2986928713,0.3579956293106079,-0.11013151705265045,1.358444333076477,-0.004540717229247093,1.4053940773010254,1.377264380455017,0.5118488073348999,3.1788551807403564
304842.3026928713,0.4135488271713257,-0.12217748165130615,1.5600584745407104,-0.0031637470237910748,1.6083515882492065,1.6260888576507568,0.564113438129425,3.712369441986084
304842.3066928713,0.1834285408258438,0.08870901167392731,0.7807111740112305,-0.012388722971081734,1.4306347370147705,-0.26284563541412354,1.8915493488311768,-0.14591576159000397
304842.3106928713,0.25959131121635437,0.19198331236839294,1.0492771863937378,0.15241412818431854,1.9997586011886597,-0.1891952008008957,2.870755195617676,-0.26491042971611023
304842.3146928713,0.2993415296077728,0.21876643598079681,1.2113866806030273,0.1623256504535675,2.339141845703125,-0.26290690898895264,3.4372029304504395,-0.4476967751979828
304842.3186928713,0.14829114079475403,0.424593061208725,0.29639381170272827,1.0558223724365234,0.27648451924324036,1.9093198776245117,-0.0496363490819931,2.697096347808838
304842.32269287127,0.16884243488311768,0.46778544783592224,0.3507571816444397,1.1531935930252075,0.3492594063282013,2.0657379627227783,0.0377848818898201,2.927623987197876
304842.3266928713,0.06841576844453812,0.5055150389671326,-0.12768396735191345,1.2346726655960083,-0.13854575157165527,1.3790651559829712,0.71103435754776,0.9246559739112854
304842.33069287124,0.08620268851518631,0.8051552176475525,-0.22775594890117645,1.7746893167495728,0.027292640879750252,1.6781800985336304,1.701653242111206,0.6380225419998169
304842.33469287126,0.10037881135940552,0.9235848784446716,-0.2683705687522888,2.0446412563323975,0.008091350086033344,1.9684158563613892,1.8821723461151123,0.7894707322120667
304842.3386928713,0.016914241015911102,0.6001211404800415,-0.14029845595359802,0.7613896131515503,0.9928401708602905,-0.3640543818473816,2.320084810256958,0.6659748554229736
304842.3426928712,0.006617031991481781,0.8428176641464233,0.009153258055448532,0.7107838988304138,1.6130132675170898,-0.1866079568862915,2.321958541870117,1.665907859802246
304842.34669287124,-0.017149554565548897,0.8908801078796387,0.3386050760746002,0.2510421872138977,1.8941760063171387,0.5503528714179993,1.0928163528442383,2.3676435947418213
304842.35069287126,-0.042155541479587555,0.8870612382888794,0.7028861045837402,-0.26249662041664124,1.977225661277771,1.537453055381775,-0.30118900537490845,2.5693371295928955
304842.3546928713,-0.05126103386282921,0.9466941952705383,0.8186357021331787,-0.3908807635307312,2.188772678375244,1.7961065769195557,-0.6717572212219238,2.943373441696167
304842.3586928713,-0.04900595545768738,0.4050563871860504,0.8374907374382019,0.044211290776729584,0.08032627403736115,1.8098268508911133,1.2488107681274414,0.403399795293808
304842.36269287125,-0.07440546154975891,0.5409054756164551,1.296322226524353,0.32310113310813904,-0.1589306890964508,2.2816879749298096,2.4109983444213867,1.097727656364441
304842.36669287126,-0.08461552113294601,0.6239845752716064,1.4880897998809814,0.3673635423183441,-0.1945650726556778,2.6845669746398926,2.830646276473999,1.101436734199524
304842.3706928713,-0.05208580195903778,0.15260152518749237,0.8383748531341553,0.8174659013748169,-0.0344243198633194,-0.10553959757089615,1.1855183839797974,3.4425413608551025
304842.37469287124,-0.06343920528888702,0.10689462721347809,0.9699381589889526,1.3892180919647217,0.7078038454055786,-0.10897818207740784,0.7571284174919128,3.028998613357544
304842.37869287125,-0.06574057042598724,0.0278036966919899,0.961299479007721,1.8642845153808594,1.5836405754089355,0.08796827495098114,0.15138287842273712,1.9901050329208374
304842.38269287127,-0.07325264811515808,0.028363022953271866,1.0900075435638428,2.131227493286133,1.818427324295044,0.030741605907678604,0.023615309968590736,2.1935319900512695
304842.3866928713,-0.01826811395585537,-0.08283347636461258,0.2070065140724182,0.8460389375686646,1.3000924587249756,1.410223126411438,0.6687876582145691,0.1642380952835083
304842.39069287124,-0.006212896201759577,-0.11747170984745026,0.09627460688352585,0.692084789276123,1.4768714904785156,2.1229093074798584,1.9524462223052979,1.4056824445724487
304842.39469287125,0.012871846556663513,-0.13354270160198212,-0.06805121153593063,0.35249096155166626,1.3588817119598389,2.506373643875122,3.179729461669922,2.832036018371582
304842.39869287127,0.013941305689513683,-0.15382328629493713,-0.08279314637184143,0.3826775550842285,1.572656273841858,2.9459340572357178,3.6915650367736816,3.283723831176758
304842.4026928713,0.04316182807087898,-0.0021014935337007046,-0.10720081627368927,-0.20612570643424988,-0.023004500195384026,0.22513499855995178,0.5120092630386353,1.2507699728012085
304842.40669287124,0.09341159462928772,0.08894376456737518,-0.01662881299853325,-0.09434923529624939,-0.02787061408162117,0.16767388582229614,0.2506406307220459,0.7189341187477112
304842.41069287126,0.142642542719841,0.19947034120559692,0.13418710231781006,0.09315326809883118,0.05183396488428116,0.14888864755630493,0.0480324849486351,0.05768369510769844
304842.4146928713,0.16296671330928802,0.22883079946041107,0.14394807815551758,0.09255941957235336,-0.007109085563570261,0.10950580984354019,-0.10852634906768799,-0.058180730789899826
304842.4186928713,0.12855233252048492,0.29077720642089844,0.49645504355430603,0.6974866986274719,0.9804950952529907,1.2224453687667847,1.5599932670593262,1.8242672681808472
304842.42269287125,0.21320722997188568,0.5260458588600159,0.9132225513458252,1.30428147315979,1.7384147644042969,1.8639106750488281,3.1525752544403076,2.4501686096191406
304842.42669287126,0.2858700454235077,0.7373084425926208,1.281638741493225,1.8359490633010864,2.3594090938568115,2.257756233215332,4.523220539093018,2.5328290462493896
304842.4306928713,0.32526904344558716,0.8432749509811401,1.471306324005127,2.1144917011260986,2.695692539215088,2.604379892349243,5.439507961273193,3.042523145675659
304842.4346928713,0.24453137814998627,0.594903290271759,0.9668902158737183,0.8683338761329651,0.6032025814056396,0.20857642590999603,-0.14670255780220032,0.18414485454559326
304842.43869287125,0.3829476535320282,0.9231528043746948,1.383317232131958,1.1086037158966064,0.5317854881286621,-0.02935515157878399,-0.21654470264911652,0.6224597096443176
304842.44269287126,0.4400559663772583,1.061049461364746,1.596252202987671,1.2920541763305664,0.6228779554367065,-0.04167008027434349,-0.29490333795547485,0.5433886051177979
304842.4466928713,0.2572798430919647,0.5797522068023682,0.5006000995635986,0.04018563777208328,-0.313448429107666,0.2301347702741623,1.4766392707824707,2.494539737701416
304842.45069287124,0.3768514096736908,0.7471800446510315,0.42219406366348267,-0.09377282112836838,0.061091430485248566,1.3355152606964111,2.3839778900146484,2.256326913833618
304842.45469287125,0.46421289443969727,0.8292258977890015,0.23302599787712097,-0.20660880208015442,0.6250147223472595,2.5118906497955322,2.908632278442383,1.4386173486709595
304842.45869287127,0.5284291505813599,0.9427987337112427,0.26175251603126526,-0.27293914556503296,0.7062663435935974,2.9131624698638916,3.453648567199707,1.5964634418487549
304842.4626928713,0.28393790125846863,0.3257823586463928,-0.08101730048656464,0.22662575542926788,1.4187861680984497,1.2895883321762085,0.03422815352678299,0.41344764828681946
304842.46669287124,0.40931808948516846,0.32696306705474854,-0.13507787883281708,0.8012742400169373,1.8711726665496826,0.8943356275558472,0.13882936537265778,1.5988891124725342
304842.47069287125,0.4981391131877899,0.2660687267780304,-0.15036991238594055,1.4263420104980469,2.027043581008911,0.20747549831867218,0.4789891242980957,2.85669207572937
304842.47469287127,0.5673157572746277,0.298789918422699,-0.19357824325561523,1.6304078102111816,2.3226072788238525,0.2025718241930008,0.4128991663455963,3.29858136177063
304842.4786928713,0.2843157947063446,-0.001855371636338532,0.17149482667446136,1.15742027759552,0.197760671377182,0.2087358832359314,1.6151843070983887,0.6211549639701843
304842.48269287124,0.38611018657684326,-0.06352982670068741,0.5258299112319946,1.4047526121139526,0.00015416363021358848,1.0771386623382568,1.8784141540527344,0.3551613986492157
304842.48669287126,0.4480843245983124,-0.12593518197536469,0.9040918946266174,1.4242970943450928,-0.19343434274196625,2.0020639896392822,1.756054162979126,0.3262503147125244
304842.4906928713,0.5084491968154907,-0.1530701369047165,1.033722162246704,1.6299455165863037,-0.24847622215747833,2.3443403244018555,2.057790756225586,0.12847384810447693
304842.4946928713,0.23753440380096436,-0.0735975131392479,0.8143084049224854,0.1920328289270401,0.517263650894165,1.485191822052002,0.0009900430450215936,3.089493751525879
304842.49869287125,0.30703625082969666,-0.050957366824150085,1.184489369392395,0.052988603711128235,1.3556914329528809,1.1622167825698853,0.7341041564941406,2.7482147216796875
304842.50269287126,0.34061774611473083,-0.0062254322692751884,1.426272988319397,-0.11323419213294983,2.1806788444519043,0.4975326955318451,1.7018351554870605,1.8686140775680542
304842.5066928713,0.38655781745910645,-0.005513819865882397,1.6294364929199219,-0.15099968016147614,2.527982711791992,0.5154998302459717,1.912769079208374,2.113636016845703
304842.5106928713,0.15662093460559845,0.11621224135160446,0.5772243738174438,0.05544359236955643,1.1741031408309937,-0.21390581130981445,1.831183671951294,-0.2457224577665329
304842.51469287125,0.1888674944639206,0.29608583450317383,0.5780444145202637,0.5837563872337341,0.9843274354934692,0.6683382987976074,1.4273123741149902,1.076960802078247
304842.51869287126,0.19581001996994019,0.4784216582775116,0.4678848087787628,1.1823101043701172,0.5483144521713257,1.6804747581481934,0.5491229891777039,2.7312405109405518
304842.5226928713,0.22163495421409607,0.5465492010116577,0.5233759880065918,1.3517738580703735,0.5982002019882202,1.9772143363952637,0.5998418927192688,3.1408820152282715
304842.5266928713,0.07171602547168732,0.4516601264476776,-0.11079870909452438,1.0698617696762085,-0.3421984016895294,1.5638351440429688,0.026222171261906624,1.556078553199768
304842.53069287125,0.07370635122060776,0.7127021551132202,-0.17735852301120758,1.46819269657135,0.06011783331632614,1.3879624605178833,1.146007776260376,0.9498099684715271
304842.53469287127,0.0629916563630104,0.9168157577514648,-0.20352035760879517,1.6821271181106567,0.6475558280944824,0.8188941478729248,2.340883255004883,0.13143807649612427
304842.5386928713,0.07043702900409698,1.0506203174591064,-0.25135520100593567,1.9439877271652222,0.7277318835258484,0.9103308916091919,2.7673280239105225,0.038302481174468994
304842.5426928713,-0.003654040629044175,0.562001645565033,0.08214673399925232,0.3137335181236267,1.4177359342575073,-0.3393430709838867,1.2869974374771118,1.5229215621948242
304842.54669287126,-0.024712782353162766,0.755630373954773,0.3581252992153168,0.17553406953811646,1.8709708452224731,0.4688143730163574,0.9170875549316406,2.3306241035461426
304842.5506928713,-0.045831337571144104,0.8652718663215637,0.6728779077529907,-0.005831902846693993,2.036959171295166,1.4670298099517822,0.35507863759994507,2.7238998413085938
304842.5546928713,-0.05354251340031624,0.987860381603241,0.7684261798858643,-0.0214723851531744,2.3624346256256104,1.6931818723678589,0.3247072696685791,3.260545253753662
304842.5586928713,-0.03909074887633324,0.40540504455566406,0.7711092829704285,-0.09649230539798737,0.2541377544403076,1.5141435861587524,1.0140055418014526,-0.4787469506263733
304842.56269287126,-0.058609552681446075,0.44738250970840454,1.1499180793762207,0.317741334438324,0.017500469461083412,1.5359694957733154,3.122206211090088,0.5856098532676697
304842.5666928713,-0.07275304943323135,0.416026771068573,1.408495545387268,0.8205790519714355,-0.24435113370418549,1.1808713674545288,5.151742458343506,2.1336491107940674
304842.5706928713,-0.08359129726886749,0.4702511131763458,1.6106270551681519,0.9425015449523926,-0.3406277298927307,1.3468050956726074,6.185302734375,2.3885090351104736
304842.5746928713,-0.04557814449071884,0.07084769010543823,0.7066171169281006,1.0872817039489746,0.46184682846069336,-0.1304735243320465,0.7726367712020874,1.626774549484253
304842.57869287126,-0.052717480808496475,0.013372516259551048,0.7544450163841248,1.5440539121627808,1.2339894771575928,0.3940538763999939,0.24478933215141296,1.0991946458816528
304842.5826928713,-0.05365036800503731,-0.06045273691415787,0.6705033183097839,1.8234238624572754,1.9919040203094482,1.1152186393737793,-0.1906062513589859,0.25450173020362854
304842.5866928713,-0.06094149500131607,-0.07044827938079834,0.7588191032409668,2.1082258224487305,2.290193557739258,1.254874348640442,-0.406732439994812,0.14459988474845886
304842.5906928713,0.0007519760401919484,-0.09724307060241699,-0.004606080707162619,0.41130319237709045,1.0214958190917969,1.7183774709701538,1.7672810554504395,1.3649870157241821
304842.59469287127,0.014109707437455654,-0.14135050773620605,-0.06251535564661026,0.3553183376789093,1.1974319219589233,2.2310147285461426,2.9513607025146484,2.787105083465576
304842.5986928713,0.015100385993719101,-0.1693122237920761,-0.07259999215602875,0.41773614287376404,1.3987131118774414,2.5919461250305176,3.4267356395721436,3.2857794761657715
304842.6026928713,0.04558517783880234,-0.017008641734719276,-0.10512076318264008,-0.27588126063346863,-0.1930893212556839,0.08051786571741104,0.3500841557979584,1.1634914875030518
304842.60669287125,0.09440521895885468,0.08381716907024384,0.01878800243139267,-0.12016788125038147,-0.09464165568351746,-0.004242831375449896,0.030004985630512238,0.5996789336204529
